mesurement	 time stamp	N1S0	N3P0	 Ntot	ex.rate	time stamp 2		# AOM frequency A	# AOM frequency B	# Zeeman shift (Hz)	# fHgAOM (Hz)	# drift rate A	# drift rate B
186.000	4.509	186.000	3514336981.686	2070.507	397.430	2467.937	0.161	0.597	-0.147	-0.668	0.114
187.000	4.362	187.000	3514336983.186	1077.234	1070.238	2147.472	0.498	0.597	-0.147	-0.668	0.114
188.000	4.362	188.000	3514336984.686	2143.146	255.448	2398.594	0.106	0.597	-0.147	1.705	0.114
189.000	2.657	189.000	3514336986.188	1157.021	1109.705	2266.726	0.490	0.597	-0.147	1.705	0.114
190.000	2.657	190.000	3514336987.688	2208.636	334.678	2543.313	0.132	0.597	-0.147	1.705	-0.253
191.000	2.910	191.000	3514336989.187	1626.862	473.896	2100.758	0.226	0.597	-0.147	1.705	-0.253
192.000	2.910	192.000	3514336990.687	1536.197	507.542	2043.739	0.248	-0.262	-0.147	1.705	-0.253
193.000	2.648	193.000	3514336992.185	1490.687	767.628	2258.315	0.340	-0.262	-0.147	1.705	-0.253
194.000	2.648	194.000	3514336993.687	2319.858	141.587	2461.444	0.058	-0.262	-3.448	1.705	-0.253
195.000	-0.801	195.000	3514336995.186	1809.169	608.873	2418.042	0.252	-0.262	-3.448	1.705	-0.253
196.000	-0.801	196.000	3514336996.687	1488.334	817.750	2306.084	0.355	-0.262	-3.448	-3.150	-0.253
197.000	2.349	197.000	3514336998.187	1746.165	646.366	2392.531	0.270	-0.262	-3.448	-3.150	-0.253
198.000	2.349	198.000	3514336999.687	2004.307	337.539	2341.846	0.144	-0.262	-3.448	-3.150	0.200
199.000	2.149	199.000	3514337001.187	1696.748	494.025	2190.772	0.226	-0.262	-3.448	-3.150	0.200
200.000	2.149	200.000	3514337002.687	2013.453	362.403	2375.856	0.153	-2.485	-3.448	-3.150	0.200
201.000	-0.336	201.000	3514337004.186	1601.421	446.368	2047.789	0.218	-2.485	-3.448	-3.150	0.200
202.000	-0.336	202.000	3514337005.688	1791.630	404.928	2196.559	0.184	-2.485	0.905	-3.150	0.200
203.000	0.569	203.000	3514337007.187	1617.138	903.590	2520.729	0.358	-2.485	0.905	-3.150	0.200
204.000	0.569	204.000	3514337008.688	2148.429	352.142	2500.571	0.141	-2.485	0.905	-1.109	0.200
205.000	1.678	205.000	3514337010.188	1809.879	641.729	2451.607	0.262	-2.485	0.905	-1.109	0.200
206.000	1.678	206.000	3514337011.687	1392.608	882.969	2275.576	0.388	-2.485	0.905	-1.109	-0.642
207.000	2.320	207.000	3514337013.187	1664.691	490.275	2154.966	0.228	-2.485	0.905	-1.109	-0.642
208.000	2.320	208.000	3514337014.686	2268.132	275.478	2543.609	0.108	-0.296	0.905	-1.109	-0.642
209.000	2.024	209.000	3514337016.186	1769.075	360.627	2129.702	0.169	-0.296	0.905	-1.109	-0.642
210.000	2.024	210.000	3514337017.686	1984.638	206.904	2191.542	0.094	-0.296	-1.915	-1.109	-0.642
211.000	0.109	211.000	3514337019.187	2080.586	476.067	2556.653	0.186	-0.296	-1.915	-1.109	-0.642
212.000	0.109	212.000	3514337020.688	1347.053	1027.713	2374.766	0.433	-0.296	-1.915	1.111	-0.642
213.000	-1.002	213.000	3514337022.183	1696.171	659.587	2355.758	0.280	-0.296	-1.915	1.111	-0.642
214.000	-1.002	214.000	3514337023.688	1965.590	368.520	2334.110	0.158	-0.296	-1.915	1.111	-1.049
215.000	0.099	215.000	3514337025.188	1996.981	334.776	2331.757	0.144	-0.296	-1.915	1.111	-1.049
216.000	0.099	216.000	3514337026.687	1204.129	987.260	2191.389	0.451	-0.659	-1.915	1.111	-1.049
217.000	-0.593	217.000	3514337028.187	1559.152	703.987	2263.139	0.311	-0.659	-1.915	1.111	-1.049
218.000	-0.593	218.000	3514337029.687	1739.105	467.680	2206.786	0.212	-0.659	2.170	1.111	-1.049
219.000	1.685	219.000	3514337031.187	1554.534	895.006	2449.540	0.365	-0.659	2.170	1.111	-1.049
220.000	1.685	220.000	3514337032.687	1746.476	704.875	2451.351	0.288	-0.659	2.170	-1.075	-1.049
221.000	2.813	221.000	3514337034.187	1871.640	439.363	2311.003	0.190	-0.659	2.170	-1.075	-1.049
222.000	2.813	222.000	3514337035.687	1282.495	993.673	2276.168	0.437	-0.659	2.170	-1.075	2.701
223.000	0.032	223.000	3514337037.187	1158.930	891.750	2050.680	0.435	-0.659	2.170	-1.075	2.701
224.000	0.032	224.000	3514337038.688	1781.374	402.659	2184.033	0.184	-0.872	2.170	-1.075	2.701
225.000	-0.918	225.000	3514337040.188	1763.214	231.966	1995.180	0.116	-0.872	2.170	-1.075	2.701
226.000	-0.918	226.000	3514337041.688	1558.841	501.425	2060.266	0.243	-0.872	-0.685	-1.075	2.701
227.000	-1.524	227.000	3514337043.188	1794.561	362.896	2157.457	0.168	-0.872	-0.685	-1.075	2.701
228.000	-1.524	228.000	3514337044.688	1934.732	532.110	2466.842	0.216	-0.872	-0.685	2.169	2.701
229.000	-3.744	229.000	3514337046.188	1572.339	749.571	2321.910	0.323	-0.872	-0.685	2.169	2.701
230.000	-3.744	230.000	3514337047.687	1919.636	669.355	2588.991	0.259	-0.872	-0.685	2.169	-2.204
231.000	-1.514	231.000	3514337049.187	1964.214	330.040	2294.254	0.144	-0.872	-0.685	2.169	-2.204
232.000	-1.514	232.000	3514337050.687	1486.958	783.710	2270.668	0.345	1.119	-0.685	2.169	-2.204
233.000	-0.421	233.000	3514337052.187	1773.959	460.379	2234.338	0.206	1.119	-0.685	2.169	-2.204
234.000	-0.421	234.000	3514337053.687	2029.215	109.915	2139.130	0.051	1.119	0.418	2.169	-2.204
235.000	0.101	235.000	3514337055.188	2208.903	179.376	2388.279	0.075	1.119	0.418	2.169	-2.204
236.000	0.101	236.000	3514337056.688	2100.211	375.920	2476.131	0.152	1.119	0.418	-0.566	-2.204
237.000	0.641	237.000	3514337058.188	1514.885	871.721	2386.606	0.365	1.119	0.418	-0.566	-2.204
238.000	0.641	238.000	3514337059.688	1982.107	321.555	2303.662	0.140	1.119	0.418	-0.566	1.771
239.000	-1.192	239.000	3514337061.188	1148.096	1013.209	2161.305	0.469	1.119	0.418	-0.566	1.771
240.000	-1.192	240.000	3514337062.687	1722.944	519.678	2242.622	0.232	-1.361	0.418	-0.566	1.771
241.000	-2.648	241.000	3514337064.187	1833.278	572.859	2406.137	0.238	-1.361	0.418	-0.566	1.771
242.000	-2.648	242.000	3514337065.687	1956.887	427.622	2384.509	0.179	-1.361	0.675	-0.566	1.771
243.000	-1.830	243.000	3514337067.187	1815.829	577.891	2393.720	0.241	-1.361	0.675	-0.566	1.771
244.000	-1.830	244.000	3514337068.687	2048.129	504.976	2553.106	0.198	-1.361	0.675	-1.986	1.771
245.000	0.228	245.000	3514337070.187	1885.359	807.193	2692.552	0.300	-1.361	0.675	-1.986	1.771
246.000	0.228	246.000	3514337071.687	1550.361	663.139	2213.500	0.300	-1.361	0.675	-1.986	-2.086
247.000	2.354	247.000	3514337073.188	1704.296	594.467	2298.763	0.259	-1.361	0.675	-1.986	-2.086
248.000	2.354	248.000	3514337074.688	1282.495	863.630	2146.125	0.402	-0.517	0.675	-1.986	-2.086
249.000	1.711	249.000	3514337076.188	1867.111	511.488	2378.599	0.215	-0.517	0.675	-1.986	-2.086
250.000	1.711	250.000	3514337077.688	2110.600	297.776	2408.377	0.124	-0.517	-0.384	-1.986	-2.086
251.000	1.458	251.000	3514337079.188	2193.939	416.275	2610.215	0.159	-0.517	-0.384	-1.986	-2.086
252.000	1.458	252.000	3514337080.688	2010.167	367.435	2377.603	0.155	-0.517	-0.384	-0.002	-2.086
253.000	1.535	253.000	3514337082.187	1542.324	903.985	2446.309	0.370	-0.517	-0.384	-0.002	-2.086
254.000	1.535	254.000	3514337083.688	1642.979	653.273	2296.252	0.284	-0.517	-0.384	-0.002	1.266
255.000	0.249	255.000	3514337085.188	1443.046	543.358	1986.404	0.274	-0.517	-0.384	-0.002	1.266
256.000	0.249	256.000	3514337086.687	1799.578	390.819	2190.397	0.178	-0.804	-0.384	-0.002	1.266
257.000	-0.728	257.000	3514337088.188	1792.163	447.158	2239.321	0.200	-0.804	-0.384	-0.002	1.266
258.000	-0.728	258.000	3514337089.687	1893.440	345.531	2238.971	0.154	-0.804	-0.043	-0.002	1.266
259.000	-0.636	259.000	3514337091.188	1795.760	628.803	2424.563	0.259	-0.804	-0.043	-0.002	1.266
260.000	-0.636	260.000	3514337092.688	1612.832	842.713	2455.544	0.343	-0.804	-0.043	-0.748	1.266
261.000	0.229	261.000	3514337094.188	1696.348	747.203	2443.552	0.306	-0.804	-0.043	-0.748	1.266
262.000	0.229	262.000	3514337095.688	1239.738	1182.028	2421.766	0.488	-0.804	-0.043	-0.748	-0.837
263.000	1.086	263.000	3514337097.188	1597.203	261.072	1858.275	0.140	-0.804	-0.043	-0.748	-0.837
264.000	1.086	264.000	3514337098.688	1372.761	757.563	2130.324	0.356	-0.399	-0.043	-0.748	-0.837
265.000	0.485	265.000	3514337100.188	1737.685	467.680	2205.365	0.212	-0.399	-0.043	-0.748	-0.837
266.000	0.485	266.000	3514337101.687	1742.524	487.414	2229.938	0.219	-0.399	0.738	-0.748	-0.837
267.000	1.403	267.000	3514337103.187	1819.336	571.971	2391.307	0.239	-0.399	0.738	-0.748	-0.837
268.000	1.403	268.000	3514337104.687	1767.921	451.795	2219.716	0.204	-0.399	0.738	1.604	-0.837
269.000	-0.159	269.000	3514337106.188	1533.444	573.945	2107.389	0.272	-0.399	0.738	1.604	-0.837
270.000	-0.159	270.000	3514337107.689	1791.542	462.254	2253.795	0.205	-0.399	0.738	1.604	1.893
271.000	-2.126	271.000	3514337109.188	1397.270	872.905	2270.174	0.385	-0.399	0.738	1.604	1.893
272.000	-2.126	272.000	3514337110.688	1833.011	713.065	2546.076	0.280	0.057	0.738	1.604	1.893
273.000	-2.277	273.000	3514337112.188	1808.458	389.240	2197.699	0.177	0.057	0.738	1.604	1.893
274.000	-2.277	274.000	3514337113.688	1906.627	463.832	2370.459	0.196	0.057	-0.314	1.604	1.893
275.000	-2.418	275.000	3514337115.188	2157.221	435.120	2592.341	0.168	0.057	-0.314	1.604	1.893
276.000	-2.418	276.000	3514337116.688	1803.574	621.897	2425.471	0.256	0.057	-0.314	-0.592	1.893
277.000	-1.753	277.000	3514337118.188	1669.087	523.822	2192.908	0.239	0.057	-0.314	-0.592	1.893
278.000	-1.753	278.000	3514337119.687	1356.732	927.862	2284.594	0.406	0.057	-0.314	-0.592	-0.919
279.000	-0.865	279.000	3514337121.187	1575.047	574.043	2149.090	0.267	0.057	-0.314	-0.592	-0.919
280.000	-0.865	280.000	3514337122.688	1194.628	821.697	2016.324	0.408	0.163	-0.314	-0.592	-0.919
281.000	-0.913	281.000	3514337124.187	1817.604	367.139	2184.743	0.168	0.163	-0.314	-0.592	-0.919
282.000	-0.913	282.000	3514337125.689	1591.342	569.800	2161.143	0.264	0.163	0.779	-0.592	-0.919
283.000	0.087	283.000	3514337127.189	1992.629	395.062	2387.691	0.165	0.163	0.779	-0.592	-0.919
284.000	0.087	284.000	3514337128.688	1586.325	601.374	2187.698	0.275	0.163	0.779	1.472	-0.919
285.000	-1.381	285.000	3514337130.189	1503.075	731.417	2234.491	0.327	0.163	0.779	1.472	-0.919
286.000	-1.381	286.000	3514337131.688	1725.785	588.942	2314.727	0.254	0.163	0.779	1.472	1.236
287.000	-2.712	287.000	3514337133.189	1456.410	728.161	2184.571	0.333	0.163	0.779	1.472	1.236
288.000	-2.712	288.000	3514337134.687	1666.600	469.160	2135.760	0.220	0.841	0.779	1.472	1.236
289.000	-2.049	289.000	3514337136.188	1701.499	561.414	2262.913	0.248	0.841	0.779	1.472	1.236
290.000	-2.049	290.000	3514337137.688	1822.488	323.331	2145.819	0.151	0.841	0.963	1.472	1.236
291.000	-0.807	291.000	3514337139.188	1291.775	1045.572	2337.347	0.447	0.841	0.963	1.472	1.236
292.000	-0.807	292.000	3514337140.687	1688.401	506.654	2195.054	0.231	0.841	0.963	-0.642	1.236
293.000	-0.129	293.000	3514337142.188	6.882	-0.099	6.783	-0.015	0.841	0.963	-0.642	1.236
294.000	-0.129	294.000	3514337143.689	-25.752	40.059	14.307	2.800	0.841	0.963	-0.642	-1.000
295.000	0.821	295.000	3514337145.188	38.939	50.517	89.456	0.565	0.841	0.963	-0.642	-1.000
296.000	0.821	296.000	3514337146.688	-6.216	-2.269	-8.485	0.267	-0.857	0.963	-0.642	-1.000
297.000	-0.267	297.000	3514337148.188	10.168	21.707	31.874	0.681	-0.857	0.963	-0.642	-1.000
298.000	-0.267	298.000	3514337149.688	-44.178	-83.669	-127.847	0.654	-0.857	-1.905	-0.642	-1.000
299.000	-1.974	299.000	3514337151.188	-12.432	42.920	30.488	1.408	-0.857	-1.905	-0.642	-1.000
326.000	-1.289	326.000	3514337191.688	1111.822	1121.348	2233.169	0.502	-0.144	3.831	0.179	-0.186
327.000	-1.146	327.000	3514337193.188	1803.396	384.603	2188.000	0.176	-0.144	3.831	0.179	-0.186
328.000	-1.146	328.000	3514337194.688	1119.192	1059.681	2178.873	0.486	0.905	3.831	0.179	-0.186
329.000	-0.458	329.000	3514337196.189	1754.601	783.611	2538.212	0.309	0.905	3.831	0.179	-0.186
330.000	-0.458	330.000	3514337197.689	1647.064	482.776	2129.840	0.227	0.905	1.508	0.179	-0.186
331.000	1.411	331.000	3514337199.189	1640.803	664.027	2304.831	0.288	0.905	1.508	0.179	-0.186
332.000	1.411	332.000	3514337200.689	1740.615	779.073	2519.687	0.309	0.905	1.508	1.153	-0.186
333.000	0.230	333.000	3514337202.189	1435.764	1031.660	2467.424	0.418	0.905	1.508	1.153	-0.186
334.000	0.230	334.000	3514337203.688	2049.240	538.424	2587.664	0.208	0.905	1.508	1.153	2.733
335.000	-2.685	335.000	3514337205.188	1370.674	746.315	2116.989	0.353	0.905	1.508	1.153	2.733
336.000	-2.685	336.000	3514337206.688	2130.847	456.926	2587.773	0.177	-0.722	1.508	1.153	2.733
337.000	-3.671	337.000	3514337208.189	2070.374	359.344	2429.718	0.148	-0.722	1.508	1.153	2.733
338.000	-3.671	338.000	3514337209.688	1660.695	679.222	2339.917	0.290	-0.722	0.186	1.153	2.733
339.000	-3.098	339.000	3514337211.188	1790.121	933.782	2723.903	0.343	-0.722	0.186	1.153	2.733
340.000	-3.098	340.000	3514337212.689	1918.348	571.577	2489.925	0.230	-0.722	0.186	-1.848	2.733
341.000	-1.185	341.000	3514337214.189	1460.007	666.790	2126.797	0.314	-0.722	0.186	-1.848	2.733
342.000	-1.185	342.000	3514337215.690	1267.888	1106.844	2374.731	0.466	-0.722	0.186	-1.848	-1.548
343.000	0.250	343.000	3514337217.190	1434.166	684.747	2118.913	0.323	-0.722	0.186	-1.848	-1.548
344.000	0.250	344.000	3514337218.689	1695.060	684.550	2379.610	0.288	1.253	0.186	-1.848	-1.548
345.000	1.288	345.000	3514337220.189	1594.583	747.203	2341.786	0.319	1.253	0.186	-1.848	-1.548
346.000	1.288	346.000	3514337221.689	1935.087	426.734	2361.821	0.181	1.253	-0.997	-1.848	-1.548
347.000	0.649	347.000	3514337223.188	1925.452	623.969	2549.421	0.245	1.253	-0.997	-1.848	-1.548
348.000	0.649	348.000	3514337224.688	1701.232	595.257	2296.489	0.259	1.253	-0.997	1.343	-1.548
349.000	-0.694	349.000	3514337226.189	1145.166	1240.241	2385.407	0.520	1.253	-0.997	1.343	-1.548
350.000	-0.694	350.000	3514337227.689	1669.086	768.318	2437.404	0.315	1.253	-0.997	1.343	-0.312
351.000	-0.485	351.000	3514337229.188	1638.939	734.574	2373.513	0.309	1.253	-0.997	1.343	-0.312
352.000	-0.485	352.000	3514337230.690	1949.029	488.598	2437.626	0.200	-1.218	-0.997	1.343	-0.312
353.000	-1.989	353.000	3514337232.189	1853.657	650.115	2503.773	0.260	-1.218	-0.997	1.343	-0.312
354.000	-1.989	354.000	3514337233.689	1910.889	437.883	2348.772	0.186	-1.218	0.127	1.343	-0.312
355.000	-1.481	355.000	3514337235.189	1669.397	706.651	2376.049	0.297	-1.218	0.127	1.343	-0.312
356.000	-1.481	356.000	3514337236.689	2357.864	282.483	2640.347	0.107	-1.218	0.127	-1.801	-0.312
357.000	0.411	357.000	3514337238.189	1701.587	724.905	2426.492	0.299	-1.218	0.127	-1.801	-0.312
358.000	0.411	358.000	3514337239.689	1820.047	748.979	2569.026	0.292	-1.218	0.127	-1.801	-0.960
359.000	1.310	359.000	3514337241.189	1687.956	791.603	2479.560	0.319	-1.218	0.127	-1.801	-0.960
360.000	1.310	360.000	3514337242.688	1673.837	692.246	2366.083	0.293	-0.644	0.127	-1.801	-0.960
361.000	0.333	361.000	3514337244.188	1834.077	567.926	2402.003	0.236	-0.644	0.127	-1.801	-0.960
362.000	0.333	362.000	3514337245.689	1828.660	541.582	2370.242	0.228	-0.644	-1.676	-1.801	-0.960
363.000	-1.026	363.000	3514337247.189	2021.090	410.059	2431.149	0.169	-0.644	-1.676	-1.801	-0.960
364.000	-1.026	364.000	3514337248.689	1687.779	815.284	2503.062	0.326	-0.644	-1.676	-0.063	-0.960
365.000	-0.865	365.000	3514337250.190	1787.723	763.977	2551.700	0.299	-0.644	-1.676	-0.063	-0.960
366.000	-0.865	366.000	3514337251.689	1594.095	742.467	2336.562	0.318	-0.644	-1.676	-0.063	-0.235
367.000	-0.682	367.000	3514337253.189	1580.553	635.611	2216.164	0.287	-0.644	-1.676	-0.063	-0.235
368.000	-0.682	368.000	3514337254.689	1879.143	478.139	2357.282	0.203	-0.070	-1.676	-0.063	-0.235
369.000	-1.105	369.000	3514337256.189	1937.485	366.448	2303.933	0.159	-0.070	-1.676	-0.063	-0.235
370.000	-1.105	370.000	3514337257.688	2118.637	216.179	2334.816	0.093	-0.070	1.382	-0.063	-0.235
371.000	0.679	371.000	3514337259.189	1495.571	824.756	2320.327	0.355	-0.070	1.382	-0.063	-0.235
372.000	0.679	372.000	3514337260.689	2193.362	234.531	2427.893	0.097	-0.070	1.382	0.162	-0.235
373.000	0.611	373.000	3514337262.189	1106.582	1207.879	2314.461	0.522	-0.070	1.382	0.162	-0.235
374.000	0.611	374.000	3514337263.689	2206.638	333.395	2540.033	0.131	-0.070	1.382	0.162	-0.739
375.000	1.333	375.000	3514337265.190	1407.970	894.612	2302.582	0.389	-0.070	1.382	0.162	-0.739
376.000	1.333	376.000	3514337266.689	1943.745	320.470	2264.215	0.142	-0.585	1.382	0.162	-0.739
377.000	0.348	377.000	3514337268.190	1658.297	570.097	2228.394	0.256	-0.585	1.382	0.162	-0.739
378.000	0.348	378.000	3514337269.690	2084.582	352.438	2437.020	0.145	-0.585	-2.278	0.162	-0.739
379.000	-1.622	379.000	3514337271.190	1548.362	877.049	2425.411	0.362	-0.585	-2.278	0.162	-0.739
380.000	-1.622	380.000	3514337272.690	1983.394	378.782	2362.176	0.160	-0.585	-2.278	-3.438	-0.739
381.000	2.087	381.000	3514337274.189	1923.365	488.006	2411.371	0.202	-0.585	-2.278	-3.438	-0.739
382.000	2.087	382.000	3514337275.689	1129.137	1057.708	2186.845	0.484	-0.585	-2.278	-3.438	-2.174
383.000	4.351	383.000	3514337277.189	1721.256	519.875	2241.132	0.232	-0.585	-2.278	-3.438	-2.174
384.000	4.351	384.000	3514337278.689	1222.955	884.449	2107.404	0.420	-0.979	-2.278	-3.438	-2.174
385.000	2.903	385.000	3514337280.189	1843.623	238.083	2081.706	0.114	-0.979	-2.278	-3.438	-2.174
386.000	2.903	386.000	3514337281.689	1619.225	462.550	2081.775	0.222	-0.979	-1.771	-3.438	-2.174
387.000	1.258	387.000	3514337283.190	2200.999	376.414	2577.413	0.146	-0.979	-1.771	-3.438	-2.174
388.000	1.258	388.000	3514337284.690	1697.547	639.361	2336.907	0.274	-0.979	-1.771	2.475	-2.174
389.000	-1.056	389.000	3514337286.190	1480.963	659.686	2140.649	0.308	-0.979	-1.771	2.475	-2.174
390.000	-1.056	390.000	3514337287.690	1915.285	545.035	2460.320	0.222	-0.979	-1.771	2.475	1.652
391.000	-2.696	391.000	3514337289.190	1433.589	615.582	2049.170	0.300	-0.979	-1.771	2.475	1.652
392.000	-2.696	392.000	3514337290.689	1469.508	840.246	2309.755	0.364	0.949	-1.771	2.475	1.652
393.000	-2.159	393.000	3514337292.189	1730.225	598.907	2329.132	0.257	0.949	-1.771	2.475	1.652
394.000	-2.159	394.000	3514337293.689	1567.233	612.129	2179.361	0.281	0.949	1.122	2.475	1.652
395.000	-0.819	395.000	3514337295.189	1957.687	406.014	2363.700	0.172	0.949	1.122	2.475	1.652
396.000	-0.819	396.000	3514337296.689	1837.540	703.987	2541.527	0.277	0.949	1.122	-0.762	1.652
397.000	0.151	397.000	3514337298.189	1421.601	1145.817	2567.418	0.446	0.949	1.122	-0.762	1.652
398.000	0.151	398.000	3514337299.689	1744.167	722.241	2466.407	0.293	0.949	1.122	-0.762	0.558
399.000	-0.475	399.000	3514337301.190	1127.672	1142.364	2270.036	0.503	0.949	1.122	-0.762	0.558
400.000	-0.475	400.000	3514337302.690	1648.041	642.814	2290.854	0.281	0.209	1.122	-0.762	0.558
401.000	-0.642	401.000	3514337304.190	1624.153	412.624	2036.778	0.203	0.209	1.122	-0.762	0.558
402.000	-0.642	402.000	3514337305.690	2030.947	291.264	2322.211	0.125	0.209	0.926	-0.762	0.558
403.000	0.533	403.000	3514337307.190	1845.887	660.574	2506.461	0.264	0.209	0.926	-0.762	0.558
404.000	0.533	404.000	3514337308.689	2111.977	428.312	2540.290	0.169	0.209	0.926	-1.350	0.558
405.000	2.115	405.000	3514337310.189	2103.052	300.934	2403.986	0.125	0.209	0.926	-1.350	0.558
406.000	2.115	406.000	3514337311.690	1094.372	1040.244	2134.616	0.487	0.209	0.926	-1.350	-1.959
407.000	4.234	407.000	3514337313.190	1571.762	489.387	2061.149	0.237	0.209	0.926	-1.350	-1.959
408.000	4.234	408.000	3514337314.689	1292.263	935.262	2227.525	0.420	-0.679	0.926	-1.350	-1.959
409.000	3.073	409.000	3514337316.189	1816.228	411.243	2227.471	0.185	-0.679	0.926	-1.350	-1.959
410.000	3.073	410.000	3514337317.690	1995.382	371.382	2366.764	0.157	-0.679	-0.835	-1.350	-1.959
411.000	2.419	411.000	3514337319.190	1919.636	556.086	2475.721	0.225	-0.679	-0.835	-1.350	-1.959
412.000	2.419	412.000	3514337320.690	1843.845	443.507	2287.352	0.194	-0.679	-0.835	3.187	-1.959
413.000	-0.579	413.000	3514337322.190	1507.826	970.980	2478.805	0.392	-0.679	-0.835	3.187	-1.959
414.000	-0.579	414.000	3514337323.690	1606.527	584.206	2190.733	0.267	-0.679	-0.835	3.187	1.605
415.000	-2.203	415.000	3514337325.190	1522.433	692.542	2214.975	0.313	-0.679	-0.835	3.187	1.605
416.000	-2.203	416.000	3514337326.690	1388.256	822.881	2211.137	0.372	-0.244	-0.835	3.187	1.605
417.000	-2.895	417.000	3514337328.189	1979.532	224.566	2204.097	0.102	-0.244	-0.835	3.187	1.605
418.000	-2.895	418.000	3514337329.690	1465.734	600.289	2066.023	0.291	-0.244	-0.270	3.187	1.605
419.000	-2.976	419.000	3514337331.190	1833.322	497.873	2331.195	0.214	-0.244	-0.270	3.187	1.605
420.000	-2.976	420.000	3514337332.689	1740.393	665.409	2405.802	0.277	-0.244	-0.270	-1.100	1.605
421.000	-1.648	421.000	3514337334.189	1617.405	695.502	2312.907	0.301	-0.244	-0.270	-1.100	1.605
422.000	-1.648	422.000	3514337335.690	1854.723	452.288	2307.011	0.196	-0.244	-0.270	-1.100	0.524
423.000	-2.131	423.000	3514337337.191	1460.451	527.670	1988.120	0.265	-0.244	-0.270	-1.100	0.524
424.000	-2.131	424.000	3514337338.690	1619.625	794.761	2414.385	0.329	1.660	-0.270	-1.100	0.524
425.000	-0.827	425.000	3514337340.190	1705.716	671.723	2377.440	0.283	1.660	-0.270	-1.100	0.524
426.000	-0.827	426.000	3514337341.690	1834.432	449.230	2283.662	0.197	1.660	0.555	-1.100	0.524
427.000	-0.051	427.000	3514337343.190	1994.006	596.441	2590.446	0.230	1.660	0.555	-1.100	0.524
428.000	-0.051	428.000	3514337344.690	1840.115	571.971	2412.087	0.237	1.660	0.555	-0.921	0.524
429.000	1.057	429.000	3514337346.189	1801.088	600.585	2401.672	0.250	1.660	0.555	-0.921	0.524
430.000	1.057	430.000	3514337347.689	1559.951	745.033	2304.984	0.323	1.660	0.555	-0.921	0.561
431.000	0.410	431.000	3514337349.190	1418.004	973.150	2391.155	0.407	1.660	0.555	-0.921	0.561
432.000	0.410	432.000	3514337350.689	1686.757	429.496	2116.254	0.203	-0.755	0.555	-0.921	0.561
433.000	-0.711	433.000	3514337352.189	1629.748	444.592	2074.340	0.214	-0.755	0.555	-0.921	0.561
434.000	-0.711	434.000	3514337353.690	1655.544	466.990	2122.534	0.220	-0.755	0.061	-0.921	0.561
435.000	-0.459	435.000	3514337355.190	1743.634	672.118	2415.752	0.278	-0.755	0.061	-0.921	0.561
436.000	-0.459	436.000	3514337356.690	1953.380	400.784	2354.164	0.170	-0.755	0.061	0.644	0.561
437.000	-0.941	437.000	3514337358.191	1406.993	700.830	2107.823	0.332	-0.755	0.061	0.644	0.561
438.000	-0.941	438.000	3514337359.690	1598.446	770.094	2368.540	0.325	-0.755	0.061	0.644	-1.795
439.000	0.914	439.000	3514337361.190	1609.635	463.339	2072.974	0.224	-0.755	0.061	0.644	-1.795
440.000	0.914	440.000	3514337362.689	1749.495	515.238	2264.733	0.228	0.050	0.061	0.644	-1.795
441.000	0.611	441.000	3514337364.189	1695.948	507.542	2203.490	0.230	0.050	0.061	0.644	-1.795
442.000	0.611	442.000	3514337365.689	2094.661	321.752	2416.413	0.133	0.050	-0.950	0.644	-1.795
443.000	-0.178	443.000	3514337367.190	1762.371	647.550	2409.921	0.269	0.050	-0.950	0.644	-1.795
444.000	-0.178	444.000	3514337368.689	1986.991	332.902	2319.893	0.143	0.050	-0.950	-0.065	-1.795
445.000	0.018	445.000	3514337370.190	1454.945	869.057	2324.002	0.374	0.050	-0.950	-0.065	-1.795
446.000	0.018	446.000	3514337371.691	2167.965	367.040	2535.005	0.145	0.050	-0.950	-0.065	0.035
447.000	0.004	447.000	3514337373.191	1510.534	779.270	2289.804	0.340	0.050	-0.950	-0.065	0.035
448.000	0.004	448.000	3514337374.690	1770.940	411.934	2182.874	0.189	-0.855	-0.950	-0.065	0.035
449.000	-1.258	449.000	3514337376.190	1773.604	433.640	2207.244	0.196	-0.855	-0.950	-0.065	0.035
450.000	-1.258	450.000	3514337377.690	1914.708	426.043	2340.751	0.182	-0.855	-1.102	-0.065	0.035
451.000	-2.293	451.000	3514337379.190	2119.658	382.827	2502.485	0.153	-0.855	-1.102	-0.065	0.035
452.000	-2.293	452.000	3514337380.690	1997.824	238.083	2235.907	0.106	-0.855	-1.102	-2.017	0.035
453.000	0.036	453.000	3514337382.190	2396.004	135.371	2531.375	0.053	-0.855	-1.102	-2.017	0.035
454.000	0.036	454.000	3514337383.690	1501.920	824.854	2326.774	0.355	-0.855	-1.102	-2.017	-1.334
455.000	1.552	455.000	3514337385.190	1796.692	570.886	2367.578	0.241	-0.855	-1.102	-2.017	-1.334
456.000	1.552	456.000	3514337386.690	1641.514	654.062	2295.576	0.285	-0.127	-1.102	-2.017	-1.334
457.000	0.994	457.000	3514337388.190	1735.109	593.382	2328.491	0.255	-0.127	-1.102	-2.017	-1.334
458.000	0.994	458.000	3514337389.691	1921.723	413.315	2335.038	0.177	-0.127	-0.409	-2.017	-1.334
459.000	0.575	459.000	3514337391.190	2025.663	404.238	2429.901	0.166	-0.127	-0.409	-2.017	-1.334
460.000	0.575	460.000	3514337392.690	1760.284	773.449	2533.733	0.305	-0.127	-0.409	2.649	-1.334
461.000	-1.910	461.000	3514337394.191	1251.060	1083.657	2334.717	0.464	-0.127	-0.409	2.649	-1.334
462.000	-1.910	462.000	3514337395.691	2413.009	135.568	2548.577	0.053	-0.127	-0.409	2.649	0.385
463.000	-2.165	463.000	3514337397.191	1685.692	755.294	2440.986	0.309	-0.127	-0.409	2.649	0.385
464.000	-2.165	464.000	3514337398.690	1567.810	687.115	2254.925	0.305	-0.685	-0.409	2.649	0.385
465.000	-3.368	465.000	3514337400.190	1729.071	562.993	2292.063	0.246	-0.685	-0.409	2.649	0.385
466.000	-3.368	466.000	3514337401.690	1700.788	498.366	2199.154	0.227	-0.685	1.222	2.649	0.385
467.000	-2.014	467.000	3514337403.190	1902.586	671.625	2574.211	0.261	-0.685	1.222	2.649	0.385
468.000	-2.014	468.000	3514337404.691	1680.853	732.206	2413.059	0.303	-0.685	1.222	-3.616	0.385
469.000	2.026	469.000	3514337406.191	2037.252	463.931	2501.183	0.185	-0.685	1.222	-3.616	0.385
470.000	2.026	470.000	3514337407.691	1117.150	1138.911	2256.060	0.505	-0.685	1.222	-3.616	-0.041
471.000	2.269	471.000	3514337409.191	1750.472	564.275	2314.747	0.244	-0.685	1.222	-3.616	-0.041
472.000	2.269	472.000	3514337410.690	1811.921	519.875	2331.797	0.223	-0.167	1.222	-3.616	-0.041
473.000	1.601	473.000	3514337412.191	1796.248	462.550	2258.798	0.205	-0.167	1.222	-3.616	-0.041
474.000	1.601	474.000	3514337413.690	1401.354	816.270	2217.625	0.368	-0.167	0.374	-3.616	-0.041
475.000	2.255	475.000	3514337415.190	1583.750	746.907	2330.657	0.320	-0.167	0.374	-3.616	-0.041
476.000	2.255	476.000	3514337416.690	1794.827	453.571	2248.398	0.202	-0.167	0.374	2.810	-0.041
477.000	-0.284	477.000	3514337418.191	1543.479	764.766	2308.245	0.331	-0.167	0.374	2.810	-0.041
478.000	-0.284	478.000	3514337419.690	1824.886	658.699	2483.585	0.265	-0.167	0.374	2.810	-0.183
479.000	0.076	479.000	3514337421.191	1737.374	481.691	2219.065	0.217	-0.167	0.374	2.810	-0.183
480.000	0.076	480.000	3514337422.691	1234.810	785.190	2020.000	0.389	1.437	0.374	2.810	-0.183
481.000	1.077	481.000	3514337424.191	1684.404	672.907	2357.312	0.285	1.437	0.374	2.810	-0.183
482.000	1.077	482.000	3514337425.691	1560.173	331.915	1892.088	0.175	1.437	-1.045	2.810	-0.183
483.000	0.079	483.000	3514337427.191	1928.560	447.059	2375.619	0.188	1.437	-1.045	2.810	-0.183
484.000	0.079	484.000	3514337428.691	1756.288	624.857	2381.145	0.262	1.437	-1.045	-0.582	-0.183
485.000	0.982	485.000	3514337430.191	1532.867	723.622	2256.489	0.321	1.437	-1.045	-0.582	-0.183
486.000	0.982	486.000	3514337431.690	1641.070	856.822	2497.892	0.343	1.437	-1.045	-0.582	1.510
487.000	-0.426	487.000	3514337433.190	1711.666	556.185	2267.851	0.245	1.437	-1.045	-0.582	1.510
488.000	-0.426	488.000	3514337434.690	2022.111	317.411	2339.522	0.136	-0.968	-1.045	-0.582	1.510
489.000	-1.933	489.000	3514337436.190	2138.439	369.704	2508.144	0.147	-0.968	-1.045	-0.582	1.510
490.000	-1.933	490.000	3514337437.690	1613.098	630.974	2244.072	0.281	-0.968	0.653	-0.582	1.510
491.000	-1.288	491.000	3514337439.190	1771.118	527.473	2298.590	0.229	-0.968	0.653	-0.582	1.510
492.000	-1.288	492.000	3514337440.692	1754.512	546.416	2300.928	0.237	-0.968	0.653	0.197	1.510
493.000	-1.100	493.000	3514337442.192	1795.626	745.822	2541.448	0.293	-0.968	0.653	0.197	1.510
494.000	-1.100	494.000	3514337443.691	1390.787	925.396	2316.183	0.400	-0.968	0.653	0.197	-0.964
495.000	0.159	495.000	3514337445.191	1737.107	425.254	2162.361	0.197	-0.968	0.653	0.197	-0.964
496.000	0.159	496.000	3514337446.691	1355.800	757.761	2113.561	0.359	1.177	0.653	0.197	-0.964
497.000	0.876	497.000	3514337448.191	1779.598	388.254	2167.852	0.179	1.177	0.653	0.197	-0.964
498.000	0.876	498.000	3514337449.691	1747.630	573.353	2320.982	0.247	1.177	0.070	0.197	-0.964
499.000	0.915	499.000	3514337451.191	1820.269	661.659	2481.928	0.267	1.177	0.070	0.197	-0.964
500.000	0.915	500.000	3514337452.690	1820.935	758.747	2579.682	0.294	1.177	0.070	0.933	-0.964
501.000	0.247	501.000	3514337454.191	1585.703	730.726	2316.429	0.315	1.177	0.070	0.933	-0.964
502.000	0.247	502.000	3514337455.690	1849.173	608.478	2457.651	0.248	1.177	0.070	0.933	1.424
503.000	-1.008	503.000	3514337457.191	1612.343	495.307	2107.650	0.235	1.177	0.070	0.933	1.424
504.000	-1.008	504.000	3514337458.691	1418.093	542.963	1961.056	0.277	0.598	0.070	0.933	1.424
505.000	-0.912	505.000	3514337460.191	1806.505	292.843	2099.347	0.139	0.598	0.070	0.933	1.424
506.000	-0.912	506.000	3514337461.691	1436.963	757.662	2194.625	0.345	0.598	0.242	0.933	1.424
507.000	-0.661	507.000	3514337463.191	1677.522	335.960	2013.483	0.167	0.598	0.242	0.933	1.424
508.000	-0.661	508.000	3514337464.691	1472.971	821.499	2294.471	0.358	0.598	0.242	-0.597	1.424
509.000	0.309	509.000	3514337466.191	1760.817	632.257	2393.074	0.264	0.598	0.242	-0.597	1.424
510.000	0.309	510.000	3514337467.692	1177.667	996.633	2174.300	0.458	0.598	0.242	-0.597	0.368
511.000	0.090	511.000	3514337469.191	1311.711	681.491	1993.202	0.342	0.598	0.242	-0.597	0.368
512.000	0.090	512.000	3514337470.691	1595.560	750.361	2345.921	0.320	1.811	0.242	-0.597	0.368
513.000	1.536	513.000	3514337472.190	1650.838	600.979	2251.817	0.267	1.811	0.242	-0.597	0.368
514.000	1.536	514.000	3514337473.691	1665.934	452.979	2118.913	0.214	1.811	1.682	-0.597	0.368
515.000	3.288	515.000	3514337475.192	1637.296	763.483	2400.780	0.318	1.811	1.682	-0.597	0.368
516.000	3.288	516.000	3514337476.691	2084.449	425.254	2509.702	0.169	1.811	1.682	1.709	0.368
517.000	1.794	517.000	3514337478.191	1929.848	549.475	2479.323	0.222	1.811	1.682	1.709	0.368
518.000	1.794	518.000	3514337479.691	1604.928	691.259	2296.188	0.301	1.811	1.682	1.709	-0.194
519.000	2.113	519.000	3514337481.192	2088.356	350.662	2439.018	0.144	1.811	1.682	1.709	-0.194
520.000	2.113	520.000	3514337482.691	1446.021	865.702	2311.723	0.374	-0.467	1.682	1.709	-0.194
521.000	1.285	521.000	3514337484.191	1659.585	651.201	2310.786	0.282	-0.467	1.682	1.709	-0.194
522.000	1.285	522.000	3514337485.691	1792.874	369.408	2162.282	0.171	-0.467	-1.307	1.709	-0.194
523.000	0.050	523.000	3514337487.191	1554.179	619.529	2173.708	0.285	-0.467	-1.307	1.709	-0.194
524.000	0.050	524.000	3514337488.691	1809.524	499.747	2309.271	0.216	-0.467	-1.307	0.699	-0.194
525.000	-0.465	525.000	3514337490.191	1283.428	1012.716	2296.143	0.441	-0.467	-1.307	0.699	-0.194
526.000	-0.465	526.000	3514337491.692	2313.508	248.640	2562.148	0.097	-0.467	-1.307	0.699	2.030
527.000	-2.475	527.000	3514337493.192	1337.773	702.705	2040.478	0.344	-0.467	-1.307	0.699	2.030
528.000	-2.475	528.000	3514337494.692	2108.736	304.387	2413.123	0.126	-0.977	-1.307	0.699	2.030
529.000	-3.858	529.000	3514337496.192	1593.651	530.235	2123.886	0.250	-0.977	-1.307	0.699	2.030
530.000	-3.858	530.000	3514337497.692	1620.468	573.057	2193.525	0.261	-0.977	-0.604	0.699	2.030
531.000	-4.502	531.000	3514337499.191	1982.995	428.214	2411.208	0.178	-0.977	-0.604	0.699	2.030
532.000	-4.502	532.000	3514337500.691	1569.586	649.227	2218.813	0.293	-0.977	-0.604	-3.027	2.030
533.000	-1.127	533.000	3514337502.192	1917.105	291.462	2208.567	0.132	-0.977	-0.604	-3.027	2.030
534.000	-1.127	534.000	3514337503.692	771.850	1311.873	2083.724	0.630	-0.977	-0.604	-3.027	-1.921
535.000	0.876	535.000	3514337505.192	1831.146	246.667	2077.813	0.119	-0.977	-0.604	-3.027	-1.921
536.000	0.876	536.000	3514337506.690	1527.584	635.118	2162.702	0.294	0.102	-0.604	-3.027	-1.921
537.000	0.604	537.000	3514337508.191	1585.126	211.838	1796.963	0.118	0.102	-0.604	-3.027	-1.921
538.000	0.604	538.000	3514337509.693	1397.269	614.398	2011.667	0.305	0.102	1.012	-3.027	-1.921
539.000	1.719	539.000	3514337511.192	1827.772	377.104	2204.876	0.171	0.102	1.012	-3.027	-1.921
548.000	-2.142	548.000	3514337524.691	1853.657	393.582	2247.239	0.175	1.650	0.569	-3.796	1.540
549.000	1.922	549.000	3514337526.191	2125.696	244.496	2370.193	0.103	1.650	0.569	-3.796	1.540
550.000	1.922	550.000	3514337527.694	1013.875	1166.044	2179.919	0.535	1.650	0.569	-3.796	-1.662
551.000	3.643	551.000	3514337529.194	1402.020	836.793	2238.813	0.374	1.650	0.569	-3.796	-1.662
552.000	3.643	552.000	3514337530.692	1392.163	782.526	2174.689	0.360	-0.013	0.569	-3.796	-1.662
553.000	3.351	553.000	3514337532.192	1684.760	456.827	2141.587	0.213	-0.013	0.569	-3.796	-1.662
554.000	3.351	554.000	3514337533.692	1805.750	372.368	2178.118	0.171	-0.013	-0.801	-3.796	-1.662
555.000	2.667	555.000	3514337535.193	1714.552	866.097	2580.649	0.336	-0.013	-0.801	-3.796	-1.662
556.000	2.667	556.000	3514337536.692	1705.228	842.614	2547.842	0.331	-0.013	-0.801	3.799	-1.662
557.000	-1.087	557.000	3514337538.192	1127.361	1035.607	2162.968	0.479	-0.013	-0.801	3.799	-1.662
558.000	-1.087	558.000	3514337539.692	2070.152	421.702	2491.854	0.169	-0.013	-0.801	3.799	-0.123
559.000	-0.870	559.000	3514337541.192	2066.955	210.555	2277.510	0.092	-0.013	-0.801	3.799	-0.123
560.000	-0.870	560.000	3514337542.692	1310.556	763.286	2073.842	0.368	-0.373	-0.801	3.799	-0.123
561.000	-1.544	561.000	3514337544.191	1793.717	353.918	2147.635	0.165	-0.373	-0.801	3.799	-0.123
562.000	-1.544	562.000	3514337545.692	1473.193	684.945	2158.138	0.317	-0.373	-0.043	3.799	-0.123
563.000	-1.523	563.000	3514337547.192	2196.781	332.310	2529.091	0.131	-0.373	-0.043	3.799	-0.123
564.000	-1.523	564.000	3514337548.692	1432.878	1005.118	2437.997	0.412	-0.373	-0.043	-2.724	-0.123
565.000	1.307	565.000	3514337550.193	2146.076	496.195	2642.271	0.188	-0.373	-0.043	-2.724	-0.123
566.000	1.307	566.000	3514337551.693	1063.603	1307.236	2370.839	0.551	-0.373	-0.043	-2.724	2.425
567.000	-1.234	567.000	3514337553.194	1552.359	619.233	2171.592	0.285	-0.373	-0.043	-2.724	2.425
568.000	-1.234	568.000	3514337554.692	2098.435	367.534	2465.969	0.149	1.343	-0.043	-2.724	2.425
569.000	-0.088	569.000	3514337556.203	1983.217	440.646	2423.862	0.182	1.343	-0.043	-2.724	2.425
570.000	-0.088	570.000	3514337557.692	1986.991	439.659	2426.650	0.181	1.343	2.472	-2.724	2.425
571.000	2.604	571.000	3514337559.206	1455.211	810.153	2265.364	0.358	1.343	2.472	-2.724	2.425
572.000	2.604	572.000	3514337560.692	2154.379	193.091	2347.470	0.082	1.343	2.472	3.200	2.425
573.000	-0.497	573.000	3514337562.208	1197.869	1030.377	2228.246	0.462	1.343	2.472	3.200	2.425
574.000	-0.497	574.000	3514337563.708	1757.531	727.371	2484.903	0.293	1.343	2.472	3.200	-1.198
575.000	0.711	575.000	3514337565.193	1499.123	756.182	2255.305	0.335	1.343	2.472	3.200	-1.198
576.000	0.711	576.000	3514337566.692	1460.628	807.390	2268.019	0.356	-0.005	2.472	3.200	-1.198
577.000	0.535	577.000	3514337568.192	-6.038	-65.811	-71.849	0.916	-0.005	2.472	3.200	-1.198
578.000	0.535	578.000	3514337569.693	-40.004	110.803	70.798	1.565	-0.005	-2.423	3.200	-1.198
579.000	-1.774	579.000	3514337571.193	-33.300	-80.117	-113.417	0.706	-0.005	-2.423	3.200	-1.198
580.000	-1.774	580.000	3514337572.694	-56.477	-46.077	-102.554	0.449	-0.005	-2.423	-1.493	-1.198
581.000	-0.167	581.000	3514337574.207	-25.130	-16.971	-42.101	0.403	-0.005	-2.423	-1.493	-1.198
582.000	-0.167	582.000	3514337575.704	29.126	45.979	75.105	0.612	-0.005	-2.423	-1.493	0.182
583.000	-0.320	583.000	3514337577.208	9.857	33.744	43.601	0.774	-0.005	-2.423	-1.493	0.182
604.000	-0.972	604.000	3514337608.694	1428.527	948.286	2376.813	0.399	0.236	0.109	2.001	1.009
605.000	-3.012	605.000	3514337610.207	1579.798	797.227	2377.025	0.335	0.236	0.109	2.001	1.009
606.000	-3.012	606.000	3514337611.703	1233.389	1076.356	2309.745	0.466	0.236	0.109	2.001	2.745
607.000	-5.973	607.000	3514337613.194	1348.607	976.110	2324.717	0.420	0.236	0.109	2.001	2.745
608.000	-5.973	608.000	3514337614.694	1700.610	440.350	2140.960	0.206	2.586	0.109	2.001	2.745
609.000	-3.441	609.000	3514337616.205	1973.848	445.776	2419.625	0.184	2.586	0.109	2.001	2.745
610.000	-3.441	610.000	3514337617.702	1876.656	660.081	2536.737	0.260	2.586	2.945	2.001	2.745
611.000	-0.269	611.000	3514337619.194	1993.517	364.080	2357.598	0.154	2.586	2.945	2.001	2.745
612.000	-0.269	612.000	3514337620.694	2048.263	570.590	2618.853	0.218	2.586	2.945	1.149	2.745
613.000	-1.493	613.000	3514337622.195	1732.135	960.028	2692.162	0.357	2.586	2.945	1.149	2.745
614.000	-1.493	614.000	3514337623.694	1764.147	1003.046	2767.193	0.362	2.586	2.945	1.149	-1.885
615.000	0.257	615.000	3514337625.208	1935.442	339.710	2275.152	0.149	2.586	2.945	1.149	-1.885
616.000	0.257	616.000	3514337626.694	1732.401	632.553	2364.953	0.267	0.669	2.945	1.149	-1.885
617.000	0.918	617.000	3514337628.207	2043.468	250.416	2293.884	0.109	0.669	2.945	1.149	-1.885
618.000	0.918	618.000	3514337629.693	2011.988	454.262	2466.250	0.184	0.669	0.558	1.149	-1.885
619.000	1.780	619.000	3514337631.207	1928.161	480.310	2408.470	0.199	0.669	0.558	1.149	-1.885
620.000	1.780	620.000	3514337632.695	2262.138	539.510	2801.647	0.193	0.669	0.558	0.052	-1.885
621.000	1.636	621.000	3514337634.195	1522.167	750.657	2272.823	0.330	0.669	0.558	0.052	-1.885
622.000	1.636	622.000	3514337635.703	1961.372	777.889	2739.260	0.284	0.669	0.558	0.052	1.040
623.000	0.335	623.000	3514337637.195	1629.703	716.617	2346.320	0.305	0.669	0.558	0.052	1.040
624.000	0.335	624.000	3514337638.705	1547.208	920.364	2467.572	0.373	0.660	0.558	0.052	1.040
625.000	1.081	625.000	3514337640.194	1875.369	694.121	2569.490	0.270	0.660	0.558	0.052	1.040
626.000	1.081	626.000	3514337641.708	1997.691	302.315	2300.006	0.131	0.660	-0.060	0.052	1.040
627.000	1.383	627.000	3514337643.208	1916.350	454.064	2370.415	0.192	0.660	-0.060	0.052	1.040
628.000	1.383	628.000	3514337644.694	2084.937	421.011	2505.948	0.168	0.660	-0.060	-0.407	1.040
629.000	1.606	629.000	3514337646.194	2094.039	459.787	2553.826	0.180	0.660	-0.060	-0.407	1.040
630.000	1.606	630.000	3514337647.694	1688.489	936.348	2624.837	0.357	0.660	-0.060	-0.407	0.595
631.000	0.718	631.000	3514337649.209	1183.794	1030.377	2214.171	0.465	0.660	-0.060	-0.407	0.595
632.000	0.718	632.000	3514337650.709	1850.905	548.390	2399.294	0.229	-1.221	-0.060	-0.407	0.595
633.000	-0.447	633.000	3514337652.194	1960.573	360.923	2321.496	0.155	-1.221	-0.060	-0.407	0.595
634.000	-0.447	634.000	3514337653.694	2194.117	326.291	2520.408	0.129	-1.221	-0.207	-0.407	0.595
635.000	-0.267	635.000	3514337655.195	2278.832	343.262	2622.094	0.131	-1.221	-0.207	-0.407	0.595
636.000	-0.267	636.000	3514337656.708	1724.187	756.774	2480.961	0.305	-1.221	-0.207	1.555	0.595
637.000	-1.976	637.000	3514337658.208	1260.872	1134.076	2394.948	0.474	-1.221	-0.207	1.555	0.595
638.000	-1.976	638.000	3514337659.696	1817.427	635.315	2452.742	0.259	-1.221	-0.207	1.555	-2.084
639.000	-0.105	639.000	3514337661.196	2126.007	131.227	2257.234	0.058	-1.221	-0.207	1.555	-2.084
640.000	-0.105	640.000	3514337662.694	1390.343	902.998	2293.341	0.394	-0.229	-0.207	1.555	-2.084
641.000	-0.231	641.000	3514337664.208	2191.231	280.510	2471.741	0.113	-0.229	-0.207	1.555	-2.084
642.000	-0.231	642.000	3514337665.708	1818.848	605.419	2424.267	0.250	-0.229	1.532	1.555	-2.084
643.000	1.724	643.000	3514337667.195	1950.982	476.166	2427.148	0.196	-0.229	1.532	1.555	-2.084
644.000	1.724	644.000	3514337668.709	2331.357	172.963	2504.320	0.069	-0.229	1.532	-1.888	-2.084
645.000	3.355	645.000	3514337670.196	1778.533	673.203	2451.736	0.275	-0.229	1.532	-1.888	-2.084
646.000	3.355	646.000	3514337671.695	1665.357	934.868	2600.225	0.360	-0.229	1.532	-1.888	2.953
647.000	0.012	647.000	3514337673.209	1622.599	654.654	2277.253	0.287	-0.229	1.532	-1.888	2.953
648.000	0.012	648.000	3514337674.709	1913.597	450.907	2364.504	0.191	1.199	1.532	-1.888	2.953
649.000	1.413	649.000	3514337676.204	1727.695	651.595	2379.290	0.274	1.199	1.532	-1.888	2.953
650.000	1.413	650.000	3514337677.709	1951.737	413.512	2365.249	0.175	1.199	-1.119	-1.888	2.953
651.000	0.657	651.000	3514337679.194	1533.089	766.641	2299.729	0.333	1.199	-1.119	-1.888	2.953
652.000	0.657	652.000	3514337680.695	2324.875	273.899	2598.774	0.105	1.199	-1.119	0.748	2.953
653.000	-0.278	653.000	3514337682.209	1927.450	637.979	2565.430	0.249	1.199	-1.119	0.748	2.953
654.000	-0.278	654.000	3514337683.695	1904.673	662.942	2567.615	0.258	1.199	-1.119	0.748	-0.852
655.000	0.273	655.000	3514337685.196	1309.846	873.398	2183.244	0.400	1.199	-1.119	0.748	-0.852
656.000	0.273	656.000	3514337686.696	1796.958	568.913	2365.871	0.240	-0.871	-1.119	0.748	-0.852
657.000	-0.477	657.000	3514337688.196	1881.984	433.246	2315.230	0.187	-0.871	-1.119	0.748	-0.852
658.000	-0.477	658.000	3514337689.709	1785.903	477.054	2262.957	0.211	-0.871	-2.006	0.748	-0.852
659.000	-2.164	659.000	3514337691.209	2505.450	262.454	2767.903	0.095	-0.871	-2.006	0.748	-0.852
660.000	-2.164	660.000	3514337692.709	1591.875	787.262	2379.137	0.331	-0.871	-2.006	0.084	-0.852
661.000	-2.491	661.000	3514337694.207	1701.720	698.659	2400.380	0.291	-0.871	-2.006	0.084	-0.852
662.000	-2.491	662.000	3514337695.709	1841.403	891.553	2732.956	0.326	-0.871	-2.006	0.084	-1.404
663.000	-1.386	663.000	3514337697.195	2128.050	270.742	2398.791	0.113	-0.871	-2.006	0.084	-1.404
664.000	-1.386	664.000	3514337698.694	1485.359	650.510	2135.869	0.305	0.208	-2.006	0.084	-1.404
665.000	-0.969	665.000	3514337700.206	1929.892	380.064	2309.957	0.165	0.208	-2.006	0.084	-1.404
666.000	-0.969	666.000	3514337701.704	1589.300	791.209	2380.508	0.332	0.208	2.078	0.084	-1.404
667.000	1.512	667.000	3514337703.196	2021.001	559.046	2580.047	0.217	0.208	2.078	0.084	-1.404
668.000	1.512	668.000	3514337704.696	1985.481	588.054	2573.535	0.229	0.208	2.078	0.309	-1.404
669.000	0.925	669.000	3514337706.197	1754.512	633.441	2387.953	0.265	0.208	2.078	0.309	-1.404
670.000	0.925	670.000	3514337707.710	2015.806	637.190	2652.996	0.240	0.208	2.078	0.309	1.687
671.000	-1.103	671.000	3514337709.196	1418.448	900.729	2319.177	0.388	0.208	2.078	0.309	1.687
672.000	-1.103	672.000	3514337710.695	1787.635	477.942	2265.576	0.211	1.477	2.078	0.309	1.687
673.000	0.635	673.000	3514337712.205	1763.925	724.115	2488.041	0.291	1.477	2.078	0.309	1.687
674.000	0.635	674.000	3514337713.696	1989.521	603.051	2592.573	0.233	1.477	0.104	0.309	1.687
675.000	1.164	675.000	3514337715.209	1889.133	566.248	2455.381	0.231	1.477	0.104	0.309	1.687
676.000	1.164	676.000	3514337716.695	1819.736	516.422	2336.157	0.221	1.477	0.104	-0.221	1.687
677.000	1.133	677.000	3514337718.209	1927.983	715.926	2643.909	0.271	1.477	0.104	-0.221	1.687
678.000	1.133	678.000	3514337719.697	1356.466	1138.516	2494.981	0.456	1.477	0.104	-0.221	-1.561
679.000	2.423	679.000	3514337721.210	1853.258	630.974	2484.231	0.254	1.477	0.104	-0.221	-1.561
680.000	2.423	680.000	3514337722.707	1526.740	1081.585	2608.325	0.415	-0.514	0.104	-0.221	-1.561
681.000	2.150	681.000	3514337724.195	1665.623	847.350	2512.974	0.337	-0.514	0.104	-0.221	-1.561
682.000	2.150	682.000	3514337725.695	1990.010	492.643	2482.653	0.198	-0.514	-0.084	-0.221	-1.561
683.000	2.498	683.000	3514337727.196	1825.774	891.849	2717.623	0.328	-0.514	-0.084	-0.221	-1.561
684.000	2.498	684.000	3514337728.696	2092.085	513.067	2605.153	0.197	-0.514	-0.084	1.633	-1.561
685.000	0.476	685.000	3514337730.207	1111.244	1264.809	2376.054	0.532	-0.514	-0.084	1.633	-1.561
686.000	0.476	686.000	3514337731.697	2493.729	347.800	2841.529	0.122	-0.514	-0.084	1.633	1.414
687.000	-1.310	687.000	3514337733.197	1664.336	716.814	2381.150	0.301	-0.514	-0.084	1.633	1.414
688.000	-1.310	688.000	3514337734.702	1826.795	571.379	2398.174	0.238	-1.221	-0.084	1.633	1.414
689.000	-2.405	689.000	3514337736.195	1941.036	566.742	2507.778	0.226	-1.221	-0.084	1.633	1.414
690.000	-2.405	690.000	3514337737.697	1790.254	749.078	2539.332	0.295	-1.221	-1.155	1.633	1.414
691.000	-3.248	691.000	3514337739.197	2319.414	273.998	2593.411	0.106	-1.221	-1.155	1.633	1.414
692.000	-3.248	692.000	3514337740.697	1765.568	966.145	2731.712	0.354	-1.221	-1.155	-3.607	1.414
693.000	0.197	693.000	3514337742.210	2356.133	341.091	2697.224	0.126	-1.221	-1.155	-3.607	1.414
694.000	0.197	694.000	3514337743.710	827.972	1445.073	2273.045	0.636	-1.221	-1.155	-3.607	-0.552
695.000	0.482	695.000	3514337745.197	1798.512	666.395	2464.908	0.270	-1.221	-1.155	-3.607	-0.552
696.000	0.482	696.000	3514337746.696	1557.642	924.902	2482.544	0.373	0.607	-1.155	-3.607	-0.552
697.000	1.294	697.000	3514337748.195	1926.474	429.595	2356.069	0.182	0.607	-1.155	-3.607	-0.552
698.000	1.294	698.000	3514337749.696	1877.411	608.182	2485.593	0.245	0.607	2.183	-3.607	-0.552
699.000	3.975	699.000	3514337751.207	1817.205	870.044	2687.249	0.324	0.607	2.183	-3.607	-0.552
708.000	-2.576	708.000	3514337764.697	1668.332	771.179	2439.511	0.316	0.549	-1.699	-2.042	0.899
709.000	-0.982	709.000	3514337766.196	1385.992	1086.124	2472.116	0.439	0.549	-1.699	-2.042	0.899
710.000	-0.982	710.000	3514337767.696	1852.148	708.131	2560.279	0.277	0.549	-1.699	-2.042	0.568
711.000	-1.950	711.000	3514337769.197	1263.891	998.113	2262.004	0.441	0.549	-1.699	-2.042	0.568
712.000	-1.950	712.000	3514337770.696	1693.640	770.489	2464.128	0.313	-0.715	-1.699	-2.042	0.568
713.000	-2.360	713.000	3514337772.206	1755.667	558.454	2314.121	0.241	-0.715	-1.699	-2.042	0.568
714.000	-2.360	714.000	3514337773.706	1752.958	454.854	2207.812	0.206	-0.715	0.968	-2.042	0.568
715.000	-0.904	715.000	3514337775.210	1861.605	675.177	2536.782	0.266	-0.715	0.968	-2.042	0.568
716.000	-0.904	716.000	3514337776.697	1883.805	608.182	2491.987	0.244	-0.715	0.968	-1.432	0.568
717.000	0.331	717.000	3514337778.210	1858.630	596.441	2455.071	0.243	-0.715	0.968	-1.432	0.568
718.000	0.331	718.000	3514337779.698	1182.417	1289.377	2471.795	0.522	-0.715	0.968	-1.432	-1.131
719.000	1.021	719.000	3514337781.210	1964.702	559.737	2524.438	0.222	-0.715	0.968	-1.432	-1.131
720.000	1.021	720.000	3514337782.697	2063.714	387.070	2450.783	0.158	-0.311	0.968	-1.432	-1.131
721.000	0.951	721.000	3514337784.196	1897.791	335.960	2233.751	0.150	-0.311	0.968	-1.432	-1.131
722.000	0.951	722.000	3514337785.707	1471.639	805.516	2277.155	0.354	-0.311	-0.194	-1.432	-1.131
723.000	1.225	723.000	3514337787.196	1710.201	919.673	2629.874	0.350	-0.311	-0.194	-1.432	-1.131
724.000	1.225	724.000	3514337788.696	1911.822	637.881	2549.702	0.250	-0.311	-0.194	2.453	-1.131
725.000	-1.744	725.000	3514337790.209	1249.817	1240.932	2490.749	0.498	-0.311	-0.194	2.453	-1.131
726.000	-1.744	726.000	3514337791.697	2092.530	398.022	2490.551	0.160	-0.311	-0.194	2.453	-0.561
727.000	-1.627	727.000	3514337793.199	1359.885	905.958	2265.843	0.400	-0.311	-0.194	2.453	-0.561
728.000	-1.627	728.000	3514337794.696	1400.777	857.315	2258.092	0.380	1.789	-0.194	2.453	-0.561
729.000	0.516	729.000	3514337796.196	1601.643	731.811	2333.454	0.314	1.789	-0.194	2.453	-0.561
730.000	0.516	730.000	3514337797.709	2077.123	375.822	2452.945	0.153	1.789	-0.876	2.453	-0.561
731.000	0.119	731.000	3514337799.209	1760.950	691.555	2452.505	0.282	1.789	-0.876	2.453	-0.561
732.000	0.119	732.000	3514337800.697	1593.429	860.374	2453.803	0.351	1.789	-0.876	-2.978	-0.561
733.000	2.879	733.000	3514337802.198	2071.351	499.649	2570.999	0.194	1.789	-0.876	-2.978	-0.561
734.000	2.879	734.000	3514337803.709	1305.761	950.457	2256.218	0.421	1.789	-0.876	-2.978	-0.177
735.000	2.715	735.000	3514337805.210	1776.179	512.870	2289.049	0.224	1.789	-0.876	-2.978	-0.177
736.000	2.715	736.000	3514337806.696	1682.007	424.464	2106.471	0.202	-1.412	-0.876	-2.978	-0.177
737.000	1.638	737.000	3514337808.211	1721.256	606.011	2327.268	0.260	-1.412	-0.876	-2.978	-0.177
738.000	1.638	738.000	3514337809.711	1993.207	227.723	2220.929	0.103	-1.412	0.604	-2.978	-0.177
739.000	2.771	739.000	3514337811.198	1488.156	786.275	2274.431	0.346	-1.412	0.604	-2.978	-0.177
740.000	2.771	740.000	3514337812.698	2185.370	309.419	2494.789	0.124	-1.412	0.604	1.997	-0.177
741.000	0.307	741.000	3514337814.208	1504.762	1047.150	2551.912	0.410	-1.412	0.604	1.997	-0.177
742.000	0.307	742.000	3514337815.699	1839.849	450.216	2290.065	0.197	-1.412	0.604	1.997	-0.198
743.000	0.103	743.000	3514337817.199	1653.458	799.003	2452.461	0.326	-1.412	0.604	1.997	-0.198
744.000	0.103	744.000	3514337818.697	1848.463	521.552	2370.015	0.220	-1.389	0.604	1.997	-0.198
745.000	-1.057	745.000	3514337820.197	1743.634	518.297	2261.931	0.229	-1.389	0.604	1.997	-0.198
746.000	-1.057	746.000	3514337821.697	1501.343	543.457	2044.800	0.266	-1.389	-1.951	1.997	-0.198
747.000	-2.677	747.000	3514337823.209	2020.380	302.808	2323.188	0.130	-1.389	-1.951	1.997	-0.198
748.000	-2.677	748.000	3514337824.711	1845.088	690.766	2535.854	0.272	-1.389	-1.951	-1.881	-0.198
749.000	-1.037	749.000	3514337826.198	1739.283	575.129	2314.412	0.248	-1.389	-1.951	-1.881	-0.198
750.000	-1.037	750.000	3514337827.698	1450.327	934.276	2384.603	0.392	-1.389	-1.951	-1.881	-0.930
751.000	-0.475	751.000	3514337829.198	1803.707	529.051	2332.759	0.227	-1.389	-1.951	-1.881	-0.930
752.000	-0.475	752.000	3514337830.709	1955.644	369.112	2324.757	0.159	0.322	-1.951	-1.881	-0.930
753.000	0.115	753.000	3514337832.210	2137.684	252.686	2390.370	0.106	0.322	-1.951	-1.881	-0.930
754.000	0.115	754.000	3514337833.698	1652.481	584.601	2237.082	0.261	0.322	1.250	-1.881	-0.930
755.000	1.885	755.000	3514337835.210	1474.392	888.691	2363.084	0.376	0.322	1.250	-1.881	-0.930
756.000	1.885	756.000	3514337836.698	2117.305	103.797	2221.102	0.047	0.322	1.250	1.261	-0.930
757.000	0.228	757.000	3514337838.198	1169.896	1086.124	2256.020	0.481	0.322	1.250	1.261	-0.930
758.000	0.228	758.000	3514337839.711	2138.128	239.958	2378.086	0.101	0.322	1.250	1.261	-0.599
759.000	0.519	759.000	3514337841.209	1329.337	630.777	1960.114	0.322	0.322	1.250	1.261	-0.599
760.000	0.519	760.000	3514337842.699	1465.024	763.187	2228.211	0.343	1.369	1.250	1.261	-0.599
761.000	2.235	761.000	3514337844.211	1415.562	635.315	2050.878	0.310	1.369	1.250	1.261	-0.599
762.000	2.235	762.000	3514337845.698	2234.920	90.971	2325.891	0.039	1.369	-2.898	1.261	-0.599
763.000	-0.274	763.000	3514337847.210	1921.501	464.128	2385.629	0.195	1.369	-2.898	1.261	-0.599
764.000	-0.274	764.000	3514337848.698	1796.293	734.475	2530.768	0.290	1.369	-2.898	-3.349	-0.599
765.000	2.921	765.000	3514337850.199	2129.159	468.963	2598.123	0.181	1.369	-2.898	-3.349	-0.599
766.000	2.921	766.000	3514337851.698	991.675	1250.700	2242.375	0.558	1.369	-2.898	-3.349	0.182
767.000	2.544	767.000	3514337853.198	1531.624	827.716	2359.339	0.351	1.369	-2.898	-3.349	0.182
768.000	2.544	768.000	3514337854.710	1709.490	480.409	2189.899	0.219	-2.382	-2.898	-3.349	0.182
769.000	0.288	769.000	3514337856.210	1793.273	409.566	2202.839	0.186	-2.382	-2.898	-3.349	0.182
770.000	0.288	770.000	3514337857.697	1893.129	474.784	2367.914	0.201	-2.382	0.842	-3.349	0.182
771.000	1.429	771.000	3514337859.210	1540.149	835.214	2375.363	0.352	-2.382	0.842	-3.349	0.182
772.000	1.429	772.000	3514337860.700	2243.800	285.739	2529.539	0.113	-2.382	0.842	3.320	0.182
773.000	-2.159	773.000	3514337862.200	1190.321	1103.884	2294.205	0.481	-2.382	0.842	3.320	0.182
774.000	-2.159	774.000	3514337863.711	2187.146	376.808	2563.955	0.147	-2.382	0.842	3.320	-1.157
775.000	-1.232	775.000	3514337865.199	1608.613	473.896	2082.510	0.228	-2.382	0.842	3.320	-1.157
776.000	-1.232	776.000	3514337866.699	1555.778	753.025	2308.802	0.326	0.128	0.842	3.320	-1.157
777.000	-0.996	777.000	3514337868.208	1994.628	292.152	2286.780	0.128	0.128	0.842	3.320	-1.157
778.000	-0.996	778.000	3514337869.710	1780.131	473.403	2253.534	0.210	0.128	-2.100	3.320	-1.157
779.000	-2.925	779.000	3514337871.209	2078.899	342.374	2421.272	0.141	0.128	-2.100	3.320	-1.157
780.000	-2.925	780.000	3514337872.710	1898.679	684.451	2583.130	0.265	0.128	-2.100	-2.941	-1.157
781.000	-0.113	781.000	3514337874.198	1967.055	539.609	2506.664	0.215	0.128	-2.100	-2.941	-1.157
782.000	-0.113	782.000	3514337875.698	1372.894	1172.457	2545.351	0.461	0.128	-2.100	-2.941	0.868
783.000	-1.207	783.000	3514337877.210	1611.367	577.201	2188.567	0.264	0.128	-2.100	-2.941	0.868
784.000	-1.207	784.000	3514337878.710	1659.318	552.337	2211.655	0.250	0.724	-2.100	-2.941	0.868
785.000	-0.365	785.000	3514337880.207	1865.823	468.766	2334.589	0.201	0.724	-2.100	-2.941	0.868
786.000	-0.365	786.000	3514337881.708	2181.108	334.776	2515.884	0.133	0.724	1.087	-2.941	0.868
787.000	0.943	787.000	3514337883.209	1801.177	617.851	2419.028	0.255	0.724	1.087	-2.941	0.868
788.000	0.943	788.000	3514337884.700	1891.042	815.777	2706.819	0.301	0.724	1.087	2.159	0.868
789.000	-1.475	789.000	3514337886.211	1318.104	1129.734	2447.839	0.462	0.724	1.087	2.159	0.868
790.000	-1.475	790.000	3514337887.710	2332.112	342.374	2674.486	0.128	0.724	1.087	2.159	-0.123
791.000	-1.540	791.000	3514337889.199	1453.568	868.169	2321.737	0.374	0.724	1.087	2.159	-0.123
792.000	-1.540	792.000	3514337890.698	1555.200	870.833	2426.033	0.359	-0.596	1.087	2.159	-0.123
793.000	-1.986	793.000	3514337892.210	2087.113	348.886	2435.999	0.143	-0.596	1.087	2.159	-0.123
794.000	-1.986	794.000	3514337893.710	1909.557	448.638	2358.195	0.190	-0.596	0.404	2.159	-0.123
795.000	-1.337	795.000	3514337895.211	2421.045	342.670	2763.715	0.124	-0.596	0.404	2.159	-0.123
796.000	-1.337	796.000	3514337896.711	2495.416	458.307	2953.723	0.155	-0.596	0.404	-2.935	-0.123
797.000	1.560	797.000	3514337898.210	2308.447	273.899	2582.346	0.106	-0.596	0.404	-2.935	-0.123
798.000	1.560	798.000	3514337899.700	1157.953	1357.063	2515.016	0.540	-0.596	0.404	-2.935	-0.132
799.000	1.411	799.000	3514337901.200	1788.434	612.030	2400.464	0.255	-0.596	0.404	-2.935	-0.132
800.000	1.411	800.000	3514337902.698	1912.665	393.384	2306.049	0.171	0.414	0.404	-2.935	-0.132
801.000	2.012	801.000	3514337904.210	2208.813	147.704	2356.518	0.063	0.414	0.404	-2.935	-0.132
802.000	2.012	802.000	3514337905.710	1841.802	492.742	2334.544	0.211	0.414	0.274	-2.935	-0.132
803.000	2.461	803.000	3514337907.210	2182.928	460.774	2643.702	0.174	0.414	0.274	-2.935	-0.132
804.000	2.461	804.000	3514337908.700	1990.499	492.248	2482.747	0.198	0.414	0.274	3.815	-0.132
805.000	-1.672	805.000	3514337910.199	1030.569	1447.146	2477.715	0.584	0.414	0.274	3.815	-0.132
806.000	-1.672	806.000	3514337911.700	2154.068	558.355	2712.423	0.206	0.414	0.274	3.815	-0.743
807.000	-1.028	807.000	3514337913.209	2009.279	632.947	2642.227	0.240	0.414	0.274	3.815	-0.743
808.000	-1.028	808.000	3514337914.711	1485.714	843.502	2329.216	0.362	1.306	0.274	3.815	-0.743
809.000	0.474	809.000	3514337916.199	1703.630	499.254	2202.883	0.227	1.306	0.274	3.815	-0.743
810.000	0.474	810.000	3514337917.699	2175.824	433.838	2609.662	0.166	1.306	0.211	3.815	-0.743
811.000	0.913	811.000	3514337919.199	2225.064	520.961	2746.024	0.190	1.306	0.211	3.815	-0.743
812.000	0.913	812.000	3514337920.700	2069.797	500.043	2569.840	0.195	1.306	0.211	-3.328	-0.743
813.000	4.125	813.000	3514337922.200	2120.679	354.312	2474.992	0.143	1.306	0.211	-3.328	-0.743
814.000	4.125	814.000	3514337923.700	1381.463	934.670	2316.133	0.404	1.306	0.211	-3.328	1.079
815.000	2.865	815.000	3514337925.211	2023.976	504.582	2528.558	0.200	1.306	0.211	-3.328	1.079
816.000	2.865	816.000	3514337926.710	1852.458	713.953	2566.411	0.278	-0.531	0.211	-3.328	1.079
817.000	2.546	817.000	3514337928.199	2009.235	523.328	2532.563	0.207	-0.531	0.211	-3.328	1.079
818.000	2.546	818.000	3514337929.700	2028.594	485.342	2513.935	0.193	-0.531	0.043	-3.328	1.079
819.000	2.914	819.000	3514337931.201	2261.649	441.435	2703.084	0.163	-0.531	0.043	-3.328	1.079
820.000	2.914	820.000	3514337932.711	1916.128	563.979	2480.107	0.227	-0.531	0.043	2.291	1.079
821.000	0.399	821.000	3514337934.200	1603.729	880.305	2484.034	0.354	-0.531	0.043	2.291	1.079
822.000	0.399	822.000	3514337935.711	1302.697	1016.070	2318.768	0.438	-0.531	0.043	2.291	0.692
823.000	-0.573	823.000	3514337937.211	1811.300	551.251	2362.551	0.233	-0.531	0.043	2.291	0.692
824.000	-0.573	824.000	3514337938.711	1678.455	696.193	2374.647	0.293	-0.119	0.043	2.291	0.692
825.000	-0.492	825.000	3514337940.199	1948.274	250.022	2198.295	0.114	-0.119	0.043	2.291	0.692
826.000	-0.492	826.000	3514337941.710	1802.198	493.630	2295.828	0.215	-0.119	0.564	2.291	0.692
827.000	0.321	827.000	3514337943.211	2105.139	562.302	2667.441	0.211	-0.119	0.564	2.291	0.692
828.000	0.321	828.000	3514337944.700	1942.014	605.913	2547.926	0.238	-0.119	0.564	0.738	0.692
829.000	-0.660	829.000	3514337946.210	1612.121	1151.836	2763.957	0.417	-0.119	0.564	0.738	0.692
830.000	-0.660	830.000	3514337947.701	1694.217	641.137	2335.354	0.275	-0.119	0.564	0.738	0.527
831.000	-1.408	831.000	3514337949.212	1554.934	805.515	2360.449	0.341	-0.119	0.564	0.738	0.527
832.000	-1.408	832.000	3514337950.699	1996.137	413.808	2409.946	0.172	0.891	0.564	0.738	0.527
833.000	-0.345	833.000	3514337952.212	2003.241	468.272	2471.513	0.189	0.891	0.564	0.738	0.527
834.000	-0.345	834.000	3514337953.701	2061.450	643.899	2705.349	0.238	0.891	0.238	0.738	0.527
835.000	0.141	835.000	3514337955.210	2221.467	414.302	2635.769	0.157	0.891	0.238	0.738	0.527
836.000	0.141	836.000	3514337956.701	1790.698	681.985	2472.683	0.276	0.891	0.238	-1.251	0.527
837.000	1.201	837.000	3514337958.200	2203.708	358.752	2562.460	0.140	0.891	0.238	-1.251	0.527
838.000	1.201	838.000	3514337959.701	1236.630	1127.070	2363.700	0.477	0.891	0.238	-1.251	-1.492
839.000	2.475	839.000	3514337961.201	2133.777	406.507	2540.284	0.160	0.891	0.238	-1.251	-1.492
840.000	2.475	840.000	3514337962.711	1255.989	1063.332	2319.320	0.458	0.427	0.238	-1.251	-1.492
841.000	3.116	841.000	3514337964.200	1676.546	614.003	2290.549	0.268	0.427	0.238	-1.251	-1.492
842.000	3.116	842.000	3514337965.710	2049.772	282.483	2332.255	0.121	0.427	1.044	-1.251	-1.492
843.000	4.455	843.000	3514337967.212	1863.070	710.499	2573.570	0.276	0.427	1.044	-1.251	-1.492
844.000	4.455	844.000	3514337968.700	1904.495	775.718	2680.214	0.289	0.427	1.044	2.964	-1.492
845.000	1.237	845.000	3514337970.200	1314.419	1045.276	2359.695	0.443	0.427	1.044	2.964	-1.492
846.000	1.237	846.000	3514337971.701	1977.933	396.147	2374.080	0.167	0.427	1.044	2.964	2.626
847.000	-1.666	847.000	3514337973.202	1441.314	559.835	2001.149	0.280	0.427	1.044	2.964	2.626
848.000	-1.666	848.000	3514337974.711	1738.173	516.817	2254.990	0.229	-1.293	1.044	2.964	2.626
849.000	-2.750	849.000	3514337976.200	2161.305	128.957	2290.263	0.056	-1.293	1.044	2.964	2.626
850.000	-2.750	850.000	3514337977.711	1420.446	725.497	2145.943	0.338	-1.293	0.117	2.964	2.626
851.000	-2.280	851.000	3514337979.210	1738.128	602.558	2340.687	0.257	-1.293	0.117	2.964	2.626
852.000	-2.280	852.000	3514337980.711	1993.296	556.875	2550.171	0.218	-1.293	0.117	-2.430	2.626
853.000	-0.156	853.000	3514337982.202	2189.277	263.835	2453.112	0.108	-1.293	0.117	-2.430	2.626
854.000	-0.156	854.000	3514337983.711	1296.082	822.486	2118.568	0.388	-1.293	0.117	-2.430	-0.445
855.000	0.012	855.000	3514337985.201	1778.799	427.622	2206.421	0.194	-1.293	0.117	-2.430	-0.445
856.000	0.012	856.000	3514337986.700	1555.689	706.355	2262.044	0.312	2.480	0.117	-2.430	-0.445
857.000	2.798	857.000	3514337988.212	1399.489	628.902	2028.391	0.310	2.480	0.117	-2.430	-0.445
858.000	2.798	858.000	3514337989.712	1796.781	405.126	2201.906	0.184	2.480	-0.344	-2.430	-0.445
859.000	2.682	859.000	3514337991.211	1871.018	465.707	2336.725	0.199	2.480	-0.344	-2.430	-0.445
860.000	2.682	860.000	3514337992.701	1879.853	536.945	2416.798	0.222	2.480	-0.344	2.470	-0.445
861.000	-0.001	861.000	3514337994.202	1743.723	660.771	2404.494	0.275	2.480	-0.344	2.470	-0.445
862.000	-0.001	862.000	3514337995.701	1875.547	483.664	2359.211	0.205	2.480	-0.344	2.470	1.042
863.000	-1.328	863.000	3514337997.211	1384.882	710.401	2095.282	0.339	2.480	-0.344	2.470	1.042
864.000	-1.328	864.000	3514337998.711	1786.169	319.582	2105.751	0.152	-1.109	-0.344	2.470	1.042
865.000	-2.208	865.000	3514338000.201	1701.010	417.064	2118.075	0.197	-1.109	-0.344	2.470	1.042
866.000	-2.208	866.000	3514338001.701	1522.922	633.737	2156.658	0.294	-1.109	0.201	2.470	1.042
867.000	-1.697	867.000	3514338003.201	2295.749	276.168	2571.917	0.107	-1.109	0.201	2.470	1.042
868.000	-1.697	868.000	3514338004.702	1525.852	846.364	2372.215	0.357	-1.109	0.201	-0.614	1.042
869.000	-1.359	869.000	3514338006.201	1693.995	498.761	2192.755	0.227	-1.109	0.201	-0.614	1.042
870.000	-1.359	870.000	3514338007.712	1257.853	957.462	2215.315	0.432	-1.109	0.201	-0.614	-1.648
871.000	0.122	871.000	3514338009.202	2315.285	116.131	2431.416	0.048	-1.109	0.201	-0.614	-1.648
872.000	0.122	872.000	3514338010.700	1255.944	1071.324	2327.268	0.460	0.853	0.201	-0.614	-1.648
873.000	1.278	873.000	3514338012.212	2187.013	131.325	2318.338	0.057	0.853	0.201	-0.614	-1.648
874.000	1.278	874.000	3514338013.711	1552.758	396.739	1949.497	0.204	0.853	2.195	-0.614	-1.648
875.000	3.836	875.000	3514338015.200	1761.927	432.851	2194.778	0.197	0.853	2.195	-0.614	-1.648
876.000	3.836	876.000	3514338016.713	1833.233	435.515	2268.749	0.192	0.853	2.195	1.802	-1.648
877.000	1.605	877.000	3514338018.213	1793.274	603.446	2396.719	0.252	0.853	2.195	1.802	-1.648
878.000	1.605	878.000	3514338019.713	1734.310	644.491	2378.801	0.271	0.853	2.195	1.802	3.631
879.000	-2.419	879.000	3514338021.212	1385.281	703.297	2088.578	0.337	0.853	2.195	1.802	3.631
880.000	-2.419	880.000	3514338022.711	1722.500	581.443	2303.943	0.252	1.292	2.195	1.802	3.631
881.000	-0.744	881.000	3514338024.212	1599.378	743.651	2343.030	0.317	1.292	2.195	1.802	3.631
882.000	-0.744	882.000	3514338025.701	1708.958	523.921	2232.878	0.235	1.292	-0.046	1.802	3.631
883.000	-0.426	883.000	3514338027.201	2061.583	478.830	2540.412	0.188	1.292	-0.046	1.802	3.631
884.000	-0.426	884.000	3514338028.711	1820.935	741.481	2562.415	0.289	1.292	-0.046	0.169	3.631
885.000	-0.921	885.000	3514338030.201	1877.545	483.960	2361.505	0.205	1.292	-0.046	0.169	3.631
886.000	-0.921	886.000	3514338031.701	1797.624	546.022	2343.646	0.233	1.292	-0.046	0.169	-0.742
887.000	-0.561	887.000	3514338033.212	1884.205	518.297	2402.501	0.216	1.292	-0.046	0.169	-0.742
888.000	-0.561	888.000	3514338034.712	1549.384	672.907	2222.291	0.303	-0.728	-0.046	0.169	-0.742
889.000	-1.024	889.000	3514338036.212	1822.311	528.953	2351.264	0.225	-0.728	-0.046	0.169	-0.742
890.000	-1.024	890.000	3514338037.701	1416.139	842.022	2258.161	0.373	-0.728	0.888	0.169	-0.742
891.000	0.311	891.000	3514338039.213	1871.151	692.641	2563.792	0.270	-0.728	0.888	0.169	-0.742
892.000	0.311	892.000	3514338040.713	1459.252	793.379	2252.631	0.352	-0.728	0.888	0.247	-0.742
893.000	-0.414	893.000	3514338042.203	1607.193	726.483	2333.676	0.311	-0.728	0.888	0.247	-0.742
894.000	-0.414	894.000	3514338043.703	1530.514	875.076	2405.590	0.364	-0.728	0.888	0.247	0.766
895.000	-1.607	895.000	3514338045.212	1784.083	377.203	2161.286	0.175	-0.728	0.888	0.247	0.766
896.000	-1.607	896.000	3514338046.702	1287.646	871.425	2159.070	0.404	1.302	0.888	0.247	0.766
897.000	0.091	897.000	3514338048.202	1973.715	367.336	2341.052	0.157	1.302	0.888	0.247	0.766
898.000	0.091	898.000	3514338049.701	1726.229	427.030	2153.259	0.198	1.302	0.722	0.247	0.766
899.000	1.264	899.000	3514338051.202	1797.669	476.560	2274.229	0.210	1.302	0.722	0.247	0.766
900.000	1.264	900.000	3514338052.713	1709.002	562.894	2271.896	0.248	1.302	0.722	0.462	0.766
901.000	0.388	901.000	3514338054.212	1512.532	877.838	2390.370	0.367	1.302	0.722	0.462	0.766
902.000	0.388	902.000	3514338055.703	1748.207	617.555	2365.763	0.261	1.302	0.722	0.462	2.016
903.000	-2.169	903.000	3514338057.202	1509.735	950.457	2460.192	0.386	1.302	0.722	0.462	2.016
904.000	-2.169	904.000	3514338058.712	13.453	11.051	24.504	0.451	0.364	0.722	0.462	2.016
905.000	-1.318	905.000	3514338060.212	13.231	75.776	89.007	0.851	0.364	0.722	0.462	2.016
906.000	-1.318	906.000	3514338061.711	-6.704	97.384	90.680	1.074	0.364	0.336	0.462	2.016
907.000	-0.420	907.000	3514338063.212	-11.810	20.325	8.515	2.387	0.364	0.336	0.462	2.016
908.000	-0.420	908.000	3514338064.702	-3.641	27.035	23.394	1.156	0.364	0.336	-0.935	2.016
909.000	0.055	909.000	3514338066.203	-48.041	-2.861	-50.902	0.056	0.364	0.336	-0.935	2.016
928.000	-1.208	928.000	3514338094.713	1717.793	512.080	2229.874	0.230	0.287	-0.426	0.581	-0.277
929.000	-0.424	929.000	3514338096.212	1837.229	428.016	2265.246	0.189	0.287	-0.426	0.581	-0.277
930.000	-0.424	930.000	3514338097.711	1561.283	644.590	2205.873	0.292	0.287	0.836	0.581	-0.277
931.000	1.087	931.000	3514338099.212	1818.404	568.123	2386.527	0.238	0.287	0.836	0.581	-0.277
932.000	1.087	932.000	3514338100.703	1815.296	654.358	2469.654	0.265	0.287	0.836	2.037	-0.277
933.000	-1.658	933.000	3514338102.202	1159.951	938.913	2098.864	0.447	0.287	0.836	2.037	-0.277
934.000	-1.658	934.000	3514338103.713	2133.200	333.198	2466.398	0.135	0.287	0.836	2.037	-0.164
935.000	-2.107	935.000	3514338105.204	1448.285	854.257	2302.542	0.371	0.287	0.836	2.037	-0.164
936.000	-2.107	936.000	3514338106.713	2073.082	441.632	2514.715	0.176	0.909	0.836	2.037	-0.164
937.000	-0.713	937.000	3514338108.213	1589.166	733.982	2323.148	0.316	0.909	0.836	2.037	-0.164
938.000	-0.713	938.000	3514338109.704	2003.951	423.675	2427.626	0.175	0.909	0.237	2.037	-0.164
939.000	0.183	939.000	3514338111.204	1512.887	796.931	2309.819	0.345	0.909	0.237	2.037	-0.164
940.000	0.183	940.000	3514338112.704	2223.554	451.894	2675.448	0.169	0.909	0.237	-2.748	-0.164
941.000	2.499	941.000	3514338114.213	2274.792	383.024	2657.816	0.144	0.909	0.237	-2.748	-0.164
942.000	2.499	942.000	3514338115.711	1081.141	1217.943	2299.083	0.530	0.909	0.237	-2.748	-1.719
943.000	3.685	943.000	3514338117.204	1800.866	629.593	2430.458	0.259	0.909	0.237	-2.748	-1.719
944.000	3.685	944.000	3514338118.703	1471.062	698.462	2169.524	0.322	-1.245	0.237	-2.748	-1.719
945.000	2.991	945.000	3514338120.202	2113.043	324.712	2437.755	0.133	-1.245	0.237	-2.748	-1.719
946.000	2.991	946.000	3514338121.712	1833.722	328.758	2162.479	0.152	-1.245	-1.550	-2.748	-1.719
947.000	2.145	947.000	3514338123.212	2128.138	514.547	2642.686	0.195	-1.245	-1.550	-2.748	-1.719
948.000	2.145	948.000	3514338124.712	1980.730	498.859	2479.590	0.201	-1.245	-1.550	3.394	-1.719
949.000	-2.005	949.000	3514338126.213	1110.223	1171.569	2281.792	0.513	-1.245	-1.550	3.394	-1.719
950.000	-2.005	950.000	3514338127.714	2355.733	242.030	2597.762	0.093	-1.245	-1.550	3.394	0.554
951.000	-3.194	951.000	3514338129.214	1554.934	592.889	2147.823	0.276	-1.245	-1.550	3.394	0.554
952.000	-3.194	952.000	3514338130.712	1799.623	560.033	2359.655	0.237	0.166	-1.550	3.394	0.554
953.000	-2.456	953.000	3514338132.210	1576.557	582.825	2159.381	0.270	0.166	-1.550	3.394	0.554
954.000	-2.456	954.000	3514338133.713	1650.438	494.025	2144.463	0.230	0.166	0.057	3.394	0.554
955.000	-1.719	955.000	3514338135.212	1655.544	848.534	2504.079	0.339	0.166	0.057	3.394	0.554
956.000	-1.719	956.000	3514338136.703	2031.124	398.614	2429.738	0.164	0.166	0.057	-3.698	0.554
957.000	1.484	957.000	3514338138.213	1995.160	415.782	2410.942	0.172	0.166	0.057	-3.698	0.554
958.000	1.484	958.000	3514338139.713	1157.065	1256.423	2413.488	0.521	0.166	0.057	-3.698	-0.341
959.000	1.229	959.000	3514338141.213	1580.819	436.798	2017.617	0.216	0.166	0.057	-3.698	-0.341
960.000	1.229	960.000	3514338142.713	1986.680	483.960	2470.641	0.196	-0.348	0.057	-3.698	-0.341
961.000	1.424	961.000	3514338144.204	1729.293	493.926	2223.219	0.222	-0.348	0.057	-3.698	-0.341
962.000	1.424	962.000	3514338145.713	1768.854	370.691	2139.544	0.173	-0.348	-1.538	-3.698	-0.341
963.000	0.491	963.000	3514338147.213	2160.639	268.472	2429.111	0.111	-0.348	-1.538	-3.698	-0.341
964.000	0.491	964.000	3514338148.713	1621.445	694.417	2315.862	0.300	-0.348	-1.538	3.064	-0.341
965.000	-3.380	965.000	3514338150.211	1138.950	1248.135	2387.084	0.523	-0.348	-1.538	3.064	-0.341
966.000	-3.380	966.000	3514338151.713	2162.548	277.747	2440.295	0.114	-0.348	-1.538	3.064	-0.181
967.000	-3.810	967.000	3514338153.211	-18.781	-67.883	-86.664	0.783	-0.348	-1.538	3.064	-0.181
968.000	-3.810	968.000	3514338154.713	-9.679	-26.640	-36.319	0.733	-0.430	-1.538	3.064	-0.181
969.000	-3.668	969.000	3514338156.211	-10.034	-90.675	-100.709	0.900	-0.430	-1.538	3.064	-0.181
970.000	-3.668	970.000	3514338157.713	-19.225	82.880	63.655	1.302	-0.430	1.666	3.064	-0.181
971.000	-1.308	971.000	3514338159.214	-10.301	41.539	31.238	1.330	-0.430	1.666	3.064	-0.181
972.000	-1.308	972.000	3514338160.713	-17.405	26.443	9.038	2.926	-0.430	1.666	-3.600	-0.181
973.000	1.816	973.000	3514338162.214	-15.940	31.968	16.028	1.994	-0.430	1.666	-3.600	-0.181
990.000	-0.086	990.000	3514338187.711	787.080	1379.164	2166.244	0.637	-2.998	0.768	-0.228	0.306
991.000	-1.046	991.000	3514338189.213	1925.807	251.896	2177.704	0.116	-2.998	0.768	-0.228	0.306
992.000	-1.046	992.000	3514338190.713	1337.995	848.337	2186.332	0.388	3.399	0.768	-0.228	0.306
993.000	2.892	993.000	3514338192.205	1946.143	331.520	2277.663	0.146	3.399	0.768	-0.228	0.306
994.000	2.892	994.000	3514338193.705	1674.237	540.990	2215.227	0.244	3.399	0.952	-0.228	0.306
995.000	4.662	995.000	3514338195.205	1834.166	580.753	2414.918	0.240	3.399	0.952	-0.228	0.306
1004.000	-3.609	1004.000	3514338208.713	1717.971	734.673	2452.643	0.300	0.868	-1.203	-3.267	2.397
1005.000	-0.984	1005.000	3514338210.206	2166.456	438.475	2604.931	0.168	0.868	-1.203	-3.267	2.397
1006.000	-0.984	1006.000	3514338211.705	1399.090	995.054	2394.144	0.416	0.868	-1.203	-3.267	-3.344
1007.000	1.715	1007.000	3514338213.215	2266.756	206.806	2473.562	0.084	0.868	-1.203	-3.267	-3.344
1008.000	1.715	1008.000	3514338214.705	1404.995	873.990	2278.985	0.383	0.149	-1.203	-3.267	-3.344
1009.000	2.525	1009.000	3514338216.205	1675.746	660.377	2336.123	0.283	0.149	-1.203	-3.267	-3.344
1010.000	2.525	1010.000	3514338217.713	1973.005	422.886	2395.891	0.177	0.149	1.356	-3.267	-3.344
1011.000	4.717	1011.000	3514338219.213	1726.007	897.867	2623.875	0.342	0.149	1.356	-3.267	-3.344
1012.000	4.717	1012.000	3514338220.713	2256.188	189.243	2445.431	0.077	0.149	1.356	2.176	-3.344
1013.000	1.707	1013.000	3514338222.214	1414.496	1083.756	2498.252	0.434	0.149	1.356	2.176	-3.344
1014.000	1.707	1014.000	3514338223.705	1881.097	631.763	2512.860	0.251	0.149	1.356	2.176	2.639
1015.000	-1.698	1015.000	3514338225.213	1773.826	628.310	2402.136	0.262	0.149	1.356	2.176	2.639
1016.000	-1.698	1016.000	3514338226.714	1655.189	720.366	2375.555	0.303	-0.934	1.356	2.176	2.639
1017.000	-2.040	1017.000	3514338228.214	1931.002	402.856	2333.858	0.173	-0.934	1.356	2.176	2.639
1018.000	-2.040	1018.000	3514338229.714	1698.346	657.318	2355.664	0.279	-0.934	-2.330	2.176	2.639
1019.000	-3.674	1019.000	3514338231.214	2192.119	465.312	2657.432	0.175	-0.934	-2.330	2.176	2.639
1020.000	-3.674	1020.000	3514338232.714	1629.126	1007.585	2636.711	0.382	-0.934	-2.330	-1.605	2.639
1021.000	-2.706	1021.000	3514338234.214	1586.902	749.966	2336.868	0.321	-0.934	-2.330	-1.605	2.639
1022.000	-2.706	1022.000	3514338235.714	1620.202	1025.542	2645.745	0.388	-0.934	-2.330	-1.605	0.367
1023.000	-3.855	1023.000	3514338237.214	1665.534	673.894	2339.428	0.288	-0.934	-2.330	-1.605	0.367
1024.000	-3.855	1024.000	3514338238.712	1883.228	639.854	2523.082	0.254	0.937	-2.330	-1.605	0.367
1025.000	-2.280	1025.000	3514338240.214	2007.681	259.395	2267.076	0.114	0.937	-2.330	-1.605	0.367
1026.000	-2.280	1026.000	3514338241.713	1762.282	621.798	2384.080	0.261	0.937	1.822	-1.605	0.367
1027.000	0.344	1027.000	3514338243.214	2128.538	501.819	2630.357	0.191	0.937	1.822	-1.605	0.367
1028.000	0.344	1028.000	3514338244.714	1884.915	781.046	2665.961	0.293	0.937	1.822	0.587	0.367
1029.000	-1.050	1029.000	3514338246.214	1942.990	644.985	2587.975	0.249	0.937	1.822	0.587	0.367
1030.000	-1.050	1030.000	3514338247.714	1694.661	1031.364	2726.024	0.378	0.937	1.822	0.587	-0.303
1031.000	-1.617	1031.000	3514338249.215	2140.260	435.022	2575.281	0.169	0.937	1.822	0.587	-0.303
1032.000	-1.617	1032.000	3514338250.713	1719.525	613.609	2333.134	0.263	1.288	1.822	0.587	-0.303
1033.000	0.461	1033.000	3514338252.214	2061.671	312.576	2374.248	0.132	1.288	1.822	0.587	-0.303
1034.000	0.461	1034.000	3514338253.713	2091.464	596.835	2688.299	0.222	1.288	0.899	0.587	-0.303
1035.000	2.246	1035.000	3514338255.213	1987.923	663.731	2651.654	0.250	1.288	0.899	0.587	-0.303
1036.000	2.246	1036.000	3514338256.714	2141.591	587.561	2729.152	0.215	1.288	0.899	1.136	-0.303
1037.000	0.344	1037.000	3514338258.213	1203.641	1285.924	2489.564	0.517	1.288	0.899	1.136	-0.303
1038.000	0.344	1038.000	3514338259.714	2003.197	690.865	2694.061	0.256	1.288	0.899	1.136	0.828
1039.000	-1.296	1039.000	3514338261.214	1076.301	1101.614	2177.916	0.506	1.288	0.899	1.136	0.828
1040.000	-1.296	1040.000	3514338262.714	2322.255	276.859	2599.114	0.107	0.795	0.899	1.136	0.828
1041.000	0.233	1041.000	3514338264.214	1740.437	751.742	2492.179	0.302	0.795	0.899	1.136	0.828
1042.000	0.233	1042.000	3514338265.714	2242.025	480.014	2722.039	0.176	0.795	-0.308	1.136	0.828
1043.000	0.819	1043.000	3514338267.213	1800.377	771.870	2572.247	0.300	0.795	-0.308	1.136	0.828
1044.000	0.819	1044.000	3514338268.714	2497.325	296.198	2793.522	0.106	0.795	-0.308	-2.289	0.828
1045.000	2.398	1045.000	3514338270.214	1844.777	779.467	2624.245	0.297	0.795	-0.308	-2.289	0.828
1046.000	2.398	1046.000	3514338271.714	2017.938	474.982	2492.919	0.191	0.795	-0.308	-2.289	-3.514
1047.000	5.226	1047.000	3514338273.213	2107.004	592.593	2699.596	0.220	0.795	-0.308	-2.289	-3.514
1048.000	5.226	1048.000	3514338274.714	1798.646	762.891	2561.537	0.298	-1.103	-0.308	-2.289	-3.514
1049.000	4.879	1049.000	3514338276.214	1949.561	616.470	2566.031	0.240	-1.103	-0.308	-2.289	-3.514
1050.000	4.879	1050.000	3514338277.714	2095.460	359.344	2454.804	0.146	-1.103	-1.708	-2.289	-3.514
1051.000	3.899	1051.000	3514338279.215	1609.413	840.444	2449.856	0.343	-1.103	-1.708	-2.289	-3.514
1052.000	3.899	1052.000	3514338280.714	2028.816	714.150	2742.966	0.260	-1.103	-1.708	-0.937	-3.514
1053.000	4.242	1053.000	3514338282.215	2363.814	344.742	2708.556	0.127	-1.103	-1.708	-0.937	-3.514
1054.000	4.242	1054.000	3514338283.714	1024.886	1354.793	2379.679	0.569	-1.103	-1.708	-0.937	0.689
1055.000	2.865	1055.000	3514338285.215	1803.974	769.601	2573.575	0.299	-1.103	-1.708	-0.937	0.689
1056.000	2.865	1056.000	3514338286.714	1534.421	654.654	2189.075	0.299	-0.826	-1.708	-0.937	0.689
1057.000	2.736	1057.000	3514338288.214	2042.047	487.611	2529.658	0.193	-0.826	-1.708	-0.937	0.689
1058.000	2.736	1058.000	3514338289.714	1984.238	353.030	2337.268	0.151	-0.826	-0.728	-0.937	0.689
1059.000	2.721	1059.000	3514338291.214	1962.748	545.232	2507.981	0.217	-0.826	-0.728	-0.937	0.689
1060.000	2.721	1060.000	3514338292.714	1635.076	947.102	2582.178	0.367	-0.826	-0.728	3.890	0.689
1061.000	-1.958	1061.000	3514338294.214	850.838	1402.252	2253.090	0.622	-0.826	-0.728	3.890	0.689
1062.000	-1.958	1062.000	3514338295.713	2532.490	86.432	2618.922	0.033	-0.826	-0.728	3.890	0.000
1063.000	-2.749	1063.000	3514338297.212	1822.799	401.672	2224.472	0.181	-0.826	-0.728	3.890	0.000
1064.000	-2.749	1064.000	3514338298.715	1566.078	727.766	2293.844	0.317	-0.367	-0.728	3.890	0.000
1065.000	-2.481	1065.000	3514338300.215	1985.526	413.118	2398.643	0.172	-0.367	-0.728	3.890	0.000
1066.000	-2.481	1066.000	3514338301.715	1562.926	579.371	2142.297	0.270	-0.367	1.315	3.890	0.000
1067.000	-0.416	1067.000	3514338303.215	1605.772	870.833	2476.605	0.352	-0.367	1.315	3.890	0.000
1084.000	-1.725	1084.000	3514338328.714	1768.498	692.345	2460.843	0.281	-0.953	0.298	-3.107	-0.646
1085.000	0.723	1085.000	3514338330.214	1590.631	763.089	2353.720	0.324	-0.953	0.298	-3.107	-0.646
1086.000	0.723	1086.000	3514338331.715	1501.920	812.817	2314.737	0.351	-0.953	0.298	-3.107	-1.375
1087.000	1.467	1087.000	3514338333.215	1756.821	173.851	1930.672	0.090	-0.953	0.298	-3.107	-1.375
1088.000	1.467	1088.000	3514338334.715	1235.831	989.726	2225.557	0.445	-0.360	0.298	-3.107	-1.375
1089.000	1.721	1089.000	3514338336.214	1930.603	410.947	2341.550	0.176	-0.360	0.298	-3.107	-1.375
1090.000	1.721	1090.000	3514338337.715	1703.363	577.102	2280.465	0.253	-0.360	0.143	-3.107	-1.375
1091.000	2.559	1091.000	3514338339.214	1652.214	817.355	2469.570	0.331	-0.360	0.143	-3.107	-1.375
1092.000	2.559	1092.000	3514338340.714	2022.733	533.787	2556.520	0.209	-0.360	0.143	0.237	-1.375
1093.000	1.671	1093.000	3514338342.214	2271.906	383.419	2655.325	0.144	-0.360	0.143	0.237	-1.375
1094.000	1.671	1094.000	3514338343.714	1496.503	925.100	2421.603	0.382	-0.360	0.143	0.237	3.121
1095.000	-2.146	1095.000	3514338345.214	976.845	1026.430	2003.276	0.512	-0.360	0.143	0.237	3.121
1096.000	-2.146	1096.000	3514338346.713	1972.827	329.646	2302.473	0.143	0.683	0.143	0.237	3.121
1097.000	-0.824	1097.000	3514338348.213	1498.368	584.897	2083.265	0.281	0.683	0.143	0.237	3.121
1098.000	-0.824	1098.000	3514338349.714	2129.959	180.067	2310.026	0.078	0.683	-1.075	0.237	3.121
1099.000	-1.289	1099.000	3514338351.216	1477.012	705.961	2182.972	0.323	0.683	-1.075	0.237	3.121
1100.000	-1.289	1100.000	3514338352.715	1673.038	627.422	2300.460	0.273	0.683	-1.075	2.091	3.121
1101.000	-4.045	1101.000	3514338354.215	1114.308	1173.345	2287.653	0.513	0.683	-1.075	2.091	3.121
1102.000	-4.045	1102.000	3514338355.715	2523.920	267.979	2791.899	0.096	0.683	-1.075	2.091	-3.249
1103.000	-1.351	1103.000	3514338357.215	1790.432	464.819	2255.251	0.206	0.683	-1.075	2.091	-3.249
1104.000	-1.351	1104.000	3514338358.714	1785.193	718.294	2503.487	0.287	-1.785	-1.075	2.091	-3.249
1105.000	-2.624	1105.000	3514338360.214	1698.790	688.793	2387.583	0.288	-1.785	-1.075	2.091	-3.249
1106.000	-2.624	1106.000	3514338361.715	1493.839	662.547	2156.387	0.307	-1.785	-0.446	2.091	-3.249
1107.000	-2.497	1107.000	3514338363.214	2223.110	214.699	2437.809	0.088	-1.785	-0.446	2.091	-3.249
1108.000	-2.497	1108.000	3514338364.714	2002.309	710.105	2712.414	0.262	-1.785	-0.446	-3.669	-3.249
1109.000	0.556	1109.000	3514338366.215	2212.987	266.203	2479.190	0.107	-1.785	-0.446	-3.669	-3.249
1110.000	0.556	1110.000	3514338367.715	1230.059	1034.126	2264.185	0.457	-1.785	-0.446	-3.669	0.711
1111.000	-0.754	1111.000	3514338369.215	1965.501	465.115	2430.616	0.191	-1.785	-0.446	-3.669	0.711
1112.000	-0.754	1112.000	3514338370.714	1765.390	628.705	2394.095	0.263	0.165	-0.446	-3.669	0.711
1113.000	-0.005	1113.000	3514338372.214	1833.233	263.440	2096.674	0.126	0.165	-0.446	-3.669	0.711
1114.000	-0.005	1114.000	3514338373.716	1568.609	692.345	2260.954	0.306	0.165	1.529	-3.669	0.711
1115.000	2.246	1115.000	3514338375.215	1649.328	762.201	2411.529	0.316	0.165	1.529	-3.669	0.711
1116.000	2.246	1116.000	3514338376.714	2053.635	370.592	2424.228	0.153	0.165	1.529	3.074	0.711
1117.000	-1.437	1117.000	3514338378.215	1212.965	1190.316	2403.281	0.495	0.165	1.529	3.074	0.711
1118.000	-1.437	1118.000	3514338379.714	2330.114	304.288	2634.403	0.116	0.165	1.529	3.074	0.627
1119.000	-2.779	1119.000	3514338381.215	1407.748	933.388	2341.135	0.399	0.165	1.529	3.074	0.627
1120.000	-2.779	1120.000	3514338382.714	1958.441	599.105	2557.546	0.234	1.589	1.529	3.074	0.627
1121.000	-0.534	1121.000	3514338384.216	1861.472	448.046	2309.518	0.194	1.589	1.529	3.074	0.627
1122.000	-0.534	1122.000	3514338385.714	1932.645	472.318	2404.963	0.196	1.589	-1.436	3.074	0.627
1123.000	-1.321	1123.000	3514338387.214	1953.513	314.944	2268.457	0.139	1.589	-1.436	3.074	0.627
1124.000	-1.321	1124.000	3514338388.714	1970.030	766.838	2736.868	0.280	1.589	-1.436	-3.342	0.627
1125.000	1.401	1125.000	3514338390.209	2197.225	334.974	2532.198	0.132	1.589	-1.436	-3.342	0.627
1126.000	1.401	1126.000	3514338391.716	1299.678	1156.374	2456.052	0.471	1.589	-1.436	-3.342	-1.447
1127.000	2.225	1127.000	3514338393.215	1771.473	606.801	2378.273	0.255	1.589	-1.436	-3.342	-1.447
1128.000	2.225	1128.000	3514338394.714	1243.912	830.971	2074.883	0.400	0.021	-1.436	-3.342	-1.447
1129.000	2.925	1129.000	3514338396.215	1758.375	735.758	2494.133	0.295	0.021	-1.436	-3.342	-1.447
1130.000	2.925	1130.000	3514338397.715	1993.828	629.297	2623.125	0.240	0.021	1.244	-3.342	-1.447
1131.000	4.955	1131.000	3514338399.215	1663.892	680.110	2344.002	0.290	0.021	1.244	-3.342	-1.447
1132.000	4.955	1132.000	3514338400.715	2115.928	426.635	2542.563	0.168	0.021	1.244	2.979	-1.447
1133.000	1.354	1133.000	3514338402.216	1576.113	796.537	2372.650	0.336	0.021	1.244	2.979	-1.447
1134.000	1.354	1134.000	3514338403.715	2082.318	435.910	2518.228	0.173	0.021	1.244	2.979	1.279
1135.000	-0.629	1135.000	3514338405.216	1590.631	853.862	2444.493	0.349	0.021	1.244	2.979	1.279
1136.000	-0.629	1136.000	3514338406.715	1532.556	804.529	2337.085	0.344	-0.485	1.244	2.979	1.279
1137.000	-0.431	1137.000	3514338408.209	1811.966	477.843	2289.809	0.209	-0.485	1.244	2.979	1.279
1138.000	-0.431	1138.000	3514338409.715	1869.597	578.878	2448.475	0.236	-0.485	-1.077	2.979	1.279
1139.000	-0.849	1139.000	3514338411.214	2257.121	325.995	2583.116	0.126	-0.485	-1.077	2.979	1.279
1140.000	-0.849	1140.000	3514338412.714	1914.885	808.969	2723.854	0.297	-0.485	-1.077	-1.431	1.279
1141.000	-0.139	1141.000	3514338414.215	2493.417	321.950	2815.367	0.114	-0.485	-1.077	-1.431	1.279
1142.000	-0.139	1142.000	3514338415.714	1358.641	989.924	2348.565	0.422	-0.485	-1.077	-1.431	-0.044
1143.000	-0.811	1143.000	3514338417.215	1812.898	516.718	2329.616	0.222	-0.485	-1.077	-1.431	-0.044
1144.000	-0.811	1144.000	3514338418.715	1772.272	789.926	2562.198	0.308	0.244	-1.077	-1.431	-0.044
1145.000	0.284	1145.000	3514338420.216	2121.301	651.102	2772.403	0.235	0.244	-1.077	-1.431	-0.044
1146.000	0.284	1146.000	3514338421.716	1932.023	608.083	2540.107	0.239	0.244	1.503	-1.431	-0.044
1147.000	2.480	1147.000	3514338423.215	1950.671	438.278	2388.949	0.183	0.244	1.503	-1.431	-0.044
1148.000	2.480	1148.000	3514338424.716	1984.460	577.694	2562.154	0.225	0.244	1.503	2.703	-0.044
1149.000	-1.103	1149.000	3514338426.216	1331.646	1102.404	2434.050	0.453	0.244	1.503	2.703	-0.044
1150.000	-1.103	1150.000	3514338427.715	2051.770	622.489	2674.259	0.233	0.244	1.503	2.703	0.761
1151.000	-2.608	1151.000	3514338429.215	1769.519	539.411	2308.930	0.234	0.244	1.503	2.703	0.761
1152.000	-2.608	1152.000	3514338430.714	1798.468	444.592	2243.061	0.198	0.040	1.503	2.703	0.761
1153.000	-1.864	1153.000	3514338432.215	1847.042	407.592	2254.634	0.181	0.040	1.503	2.703	0.761
1154.000	-1.864	1154.000	3514338433.714	1795.937	521.158	2317.095	0.225	0.040	0.370	2.703	0.761
1155.000	-0.833	1155.000	3514338435.214	1588.500	652.582	2241.082	0.291	0.040	0.370	2.703	0.761
1156.000	-0.833	1156.000	3514338436.715	1793.939	740.494	2534.433	0.292	0.040	0.370	-1.937	0.761
1157.000	0.573	1157.000	3514338438.216	1726.673	554.705	2281.378	0.243	0.040	0.370	-1.937	0.761
1158.000	0.573	1158.000	3514338439.716	1215.451	1027.516	2242.967	0.458	0.040	0.370	-1.937	-0.312
1159.000	0.271	1159.000	3514338441.216	1691.020	675.670	2366.690	0.285	0.040	0.370	-1.937	-0.312
1160.000	0.271	1160.000	3514338442.716	1554.712	571.774	2126.486	0.269	0.388	0.370	-1.937	-0.312
1161.000	1.348	1161.000	3514338444.215	1957.998	393.779	2351.777	0.167	0.388	0.370	-1.937	-0.312
1162.000	1.348	1162.000	3514338445.715	1861.116	416.176	2277.293	0.183	0.388	0.009	-1.937	-0.312
1163.000	2.071	1163.000	3514338447.215	1925.807	479.126	2404.933	0.199	0.388	0.009	-1.937	-0.312
1164.000	2.071	1164.000	3514338448.715	2007.371	583.811	2591.182	0.225	0.388	0.009	1.892	-0.312
1165.000	-0.596	1165.000	3514338450.216	1286.713	993.180	2279.893	0.436	0.388	0.009	1.892	-0.312
1166.000	-0.596	1166.000	3514338451.715	1897.436	596.934	2494.370	0.239	0.388	0.009	1.892	-0.146
1167.000	-1.212	1167.000	3514338453.214	1649.595	645.675	2295.270	0.281	0.388	0.009	1.892	-0.146
1168.000	-1.212	1168.000	3514338454.715	1342.480	739.803	2082.283	0.355	0.135	0.009	1.892	-0.146
1169.000	-0.387	1169.000	3514338456.215	1788.034	338.032	2126.066	0.159	0.135	0.009	1.892	-0.146
1170.000	-0.387	1170.000	3514338457.715	1904.051	411.539	2315.591	0.178	0.135	0.230	1.892	-0.146
1171.000	0.499	1171.000	3514338459.216	1882.917	475.179	2358.096	0.202	0.135	0.230	1.892	-0.146
1172.000	0.499	1172.000	3514338460.716	1834.033	449.526	2283.558	0.197	0.135	0.230	-1.728	-0.146
1173.000	1.640	1173.000	3514338462.216	1892.862	489.880	2382.743	0.206	0.135	0.230	-1.728	-0.146
1174.000	1.640	1174.000	3514338463.715	1236.452	1042.513	2278.965	0.457	0.135	0.230	-1.728	0.651
1175.000	0.320	1175.000	3514338465.216	2002.975	363.192	2366.167	0.153	0.135	0.230	-1.728	0.651
1176.000	0.320	1176.000	3514338466.715	1708.691	494.814	2203.505	0.225	0.165	0.230	-1.728	0.651
1177.000	1.232	1177.000	3514338468.216	1407.792	946.708	2354.500	0.402	0.165	0.230	-1.728	0.651
1178.000	1.232	1178.000	3514338469.715	1919.991	471.726	2391.717	0.197	0.165	-0.041	-1.728	0.651
1179.000	1.952	1179.000	3514338471.217	1924.742	482.579	2407.321	0.200	0.165	-0.041	-1.728	0.651
1180.000	1.952	1180.000	3514338472.716	2004.040	443.704	2447.745	0.181	0.165	-0.041	2.216	0.651
1181.000	-1.029	1181.000	3514338474.217	1458.097	793.873	2251.970	0.353	0.165	-0.041	2.216	0.651
1182.000	-1.029	1182.000	3514338475.716	2341.125	370.494	2711.619	0.137	0.165	-0.041	2.216	0.625
1183.000	-2.332	1183.000	3514338477.216	1388.789	669.947	2058.736	0.325	0.165	-0.041	2.216	0.625
1184.000	-2.332	1184.000	3514338478.716	1964.213	363.094	2327.307	0.156	-1.803	-0.041	2.216	0.625
1185.000	-3.517	1185.000	3514338480.216	1779.021	493.827	2272.848	0.217	-1.803	-0.041	2.216	0.625
1186.000	-3.517	1186.000	3514338481.715	1566.256	489.190	2055.446	0.238	-1.803	-0.169	2.216	0.625
1187.000	-3.020	1187.000	3514338483.216	1685.426	855.638	2541.064	0.337	-1.803	-0.169	2.216	0.625
1188.000	-3.020	1188.000	3514338484.715	1651.904	665.507	2317.411	0.287	-1.803	-0.169	-1.900	0.625
1189.000	-1.768	1189.000	3514338486.216	1441.359	886.521	2327.879	0.381	-1.803	-0.169	-1.900	0.625
1190.000	-1.768	1190.000	3514338487.715	1777.112	587.561	2364.672	0.248	-1.803	-0.169	-1.900	-1.491
1191.000	-0.889	1191.000	3514338489.217	1766.278	346.320	2112.598	0.164	-1.803	-0.169	-1.900	-1.491
1192.000	-0.889	1192.000	3514338490.716	1657.231	382.630	2039.861	0.188	0.182	-0.169	-1.900	-1.491
1193.000	-0.146	1193.000	3514338492.217	1745.632	509.712	2255.344	0.226	0.182	-0.169	-1.900	-1.491
1194.000	-0.146	1194.000	3514338493.717	1579.931	650.609	2230.540	0.292	0.182	-0.436	-1.900	-1.491
1195.000	0.010	1195.000	3514338495.217	1766.056	394.470	2160.526	0.183	0.182	-0.436	-1.900	-1.491
1196.000	0.010	1196.000	3514338496.716	1585.881	582.825	2168.706	0.269	0.182	-0.436	-1.165	-1.491
1197.000	0.650	1197.000	3514338498.216	1558.264	599.894	2158.158	0.278	0.182	-0.436	-1.165	-1.491
1198.000	0.650	1198.000	3514338499.715	1018.493	1117.895	2136.387	0.523	0.182	-0.436	-1.165	0.208
1199.000	-0.126	1199.000	3514338501.216	1465.290	563.881	2029.171	0.278	0.182	-0.436	-1.165	0.208
1200.000	-0.126	1200.000	3514338502.716	1662.560	352.832	2015.392	0.175	0.578	-0.436	-1.165	0.208
1201.000	0.991	1201.000	3514338504.216	1343.945	673.894	2017.839	0.334	0.578	-0.436	-1.165	0.208
1202.000	0.991	1202.000	3514338505.716	1661.228	382.531	2043.759	0.187	0.578	0.758	-1.165	0.208
1203.000	2.380	1203.000	3514338507.217	1295.815	925.790	2221.605	0.417	0.578	0.758	-1.165	0.208
1204.000	2.380	1204.000	3514338508.717	1976.424	353.622	2330.045	0.152	0.578	0.758	2.159	0.208
1205.000	-0.514	1205.000	3514338510.217	1223.710	869.747	2093.457	0.415	0.578	0.758	2.159	0.208
1206.000	-0.514	1206.000	3514338511.717	2102.697	307.643	2410.340	0.128	0.578	0.758	2.159	-0.905
1207.000	-0.296	1207.000	3514338513.217	1727.206	379.867	2107.073	0.180	0.578	0.758	2.159	-0.905
1208.000	-0.296	1208.000	3514338514.715	1303.719	820.908	2124.626	0.386	-1.292	0.758	2.159	-0.905
1209.000	-1.067	1209.000	3514338516.216	1616.783	374.539	1991.322	0.188	-1.292	0.758	2.159	-0.905
1210.000	-1.067	1210.000	3514338517.716	1606.571	500.339	2106.910	0.237	-1.292	-2.332	2.159	-0.905
1211.000	-2.813	1211.000	3514338519.216	2002.975	364.475	2367.450	0.154	-1.292	-2.332	2.159	-0.905
1212.000	-2.813	1212.000	3514338520.715	1356.199	753.814	2110.014	0.357	-1.292	-2.332	-2.533	-0.905
1213.000	-0.936	1213.000	3514338522.216	1268.687	979.070	2247.757	0.436	-1.292	-2.332	-2.533	-0.905
1214.000	-0.936	1214.000	3514338523.717	1522.611	711.683	2234.294	0.319	-1.292	-2.332	-2.533	1.814
1215.000	-3.493	1215.000	3514338525.218	1133.800	1054.156	2187.955	0.482	-1.292	-2.332	-2.533	1.814
1216.000	-3.493	1216.000	3514338526.717	1888.911	221.310	2110.221	0.105	0.435	-2.332	-2.533	1.814
1217.000	-2.487	1217.000	3514338528.216	1511.999	576.411	2088.410	0.276	0.435	-2.332	-2.533	1.814
1218.000	-2.487	1218.000	3514338529.716	1760.906	423.280	2184.186	0.194	0.435	1.789	-2.533	1.814
1219.000	0.007	1219.000	3514338531.217	1261.894	793.083	2054.977	0.386	0.435	1.789	-2.533	1.814
1220.000	0.007	1220.000	3514338532.717	1975.225	377.992	2353.217	0.161	0.435	1.789	-1.030	1.814
1221.000	0.624	1221.000	3514338534.216	2349.295	359.344	2708.639	0.133	0.435	1.789	-1.030	1.814
1222.000	0.624	1222.000	3514338535.716	625.508	1645.367	2270.875	0.725	0.435	1.789	-1.030	-3.317
1223.000	3.361	1223.000	3514338537.217	1907.470	206.411	2113.881	0.098	0.435	1.789	-1.030	-3.317
1224.000	3.361	1224.000	3514338538.715	1151.782	864.814	2016.596	0.429	-0.723	1.789	-1.030	-3.317
1225.000	3.184	1225.000	3514338540.216	1795.005	410.750	2205.755	0.186	-0.723	1.789	-1.030	-3.317
1226.000	3.184	1226.000	3514338541.717	1642.224	596.342	2238.566	0.266	-0.723	-1.983	-1.030	-3.317
1227.000	1.741	1227.000	3514338543.217	1611.899	714.347	2326.246	0.307	-0.723	-1.983	-1.030	-3.317
