mesurement	 time stamp	N1S0	N3P0	 Ntot	ex.rate	time stamp 2		# AOM frequency A	# AOM frequency B	# Zeeman shift (Hz)	# fHgAOM (Hz)	# drift rate A	# drift rate B
18.000	3.580	18.000	3514341428.345	1566.567	369.408	1935.975	0.191	0.321	-0.432	-0.159	-0.080
19.000	3.127	19.000	3514341429.845	1290.754	833.438	2124.192	0.392	0.321	-0.432	-0.159	-0.080
36.000	-0.194	36.000	3514341455.344	1748.385	415.584	2163.969	0.192	0.064	1.119	1.104	-0.863
37.000	-1.386	37.000	3514341456.844	1410.989	632.849	2043.837	0.310	0.064	1.119	1.104	-0.863
38.000	-1.386	38.000	3514341458.345	1438.384	667.974	2106.358	0.317	0.064	1.119	1.104	-0.258
39.000	-1.054	39.000	3514341459.845	1235.964	699.449	1935.413	0.361	0.064	1.119	1.104	-0.258
40.000	-1.054	40.000	3514341461.344	1503.652	443.902	1947.554	0.228	1.601	1.119	1.104	-0.258
41.000	0.530	41.000	3514341462.845	1436.075	597.625	2033.700	0.294	1.601	1.119	1.104	-0.258
42.000	0.530	42.000	3514341464.346	1632.723	316.030	1948.752	0.162	1.601	-1.284	1.104	-0.258
43.000	-0.918	43.000	3514341465.845	1629.126	422.590	2051.716	0.206	1.601	-1.284	1.104	-0.258
44.000	-0.918	44.000	3514341467.344	1491.664	689.582	2181.246	0.316	1.601	-1.284	0.066	-0.258
45.000	-1.078	45.000	3514341468.846	1483.894	666.790	2150.684	0.310	1.601	-1.284	0.066	-0.258
46.000	-1.078	46.000	3514341470.344	1985.170	271.531	2256.701	0.120	1.601	-1.284	0.066	-1.175
47.000	0.233	47.000	3514341471.845	1486.824	563.387	2050.212	0.275	1.601	-1.284	0.066	-1.175
48.000	0.233	48.000	3514341473.345	1489.888	606.208	2096.096	0.289	-1.159	-1.284	0.066	-1.175
49.000	-1.003	49.000	3514341474.845	1563.059	470.246	2033.305	0.231	-1.159	-1.284	0.066	-1.175
50.000	-1.003	50.000	3514341476.345	1418.315	794.563	2212.878	0.359	-1.159	0.970	0.066	-1.175
51.000	-0.156	51.000	3514341477.844	1732.268	462.254	2194.521	0.211	-1.159	0.970	0.066	-1.175
52.000	-0.156	52.000	3514341479.345	1700.788	561.611	2262.399	0.248	-1.159	0.970	-1.669	-1.175
53.000	1.497	53.000	3514341480.846	1810.989	404.534	2215.523	0.183	-1.159	0.970	-1.669	-1.175
54.000	1.497	54.000	3514341482.345	1153.113	761.115	1914.229	0.398	-1.159	0.970	-1.669	0.127
55.000	1.507	55.000	3514341483.845	1854.234	233.051	2087.285	0.112	-1.159	0.970	-1.669	0.127
56.000	1.507	56.000	3514341485.345	1144.544	684.649	1829.193	0.374	1.125	0.970	-1.669	0.127
57.000	2.608	57.000	3514341486.845	1611.322	304.584	1915.906	0.159	1.125	0.970	-1.669	0.127
58.000	2.608	58.000	3514341488.344	1610.700	422.195	2032.896	0.208	1.125	0.331	-1.669	0.127
59.000	2.826	59.000	3514341489.845	1742.435	417.459	2159.894	0.193	1.125	0.331	-1.669	0.127
60.000	2.826	60.000	3514341491.344	1574.958	526.190	2101.148	0.250	1.125	0.331	1.892	0.127
61.000	0.822	61.000	3514341492.845	1913.953	357.568	2271.521	0.157	1.125	0.331	1.892	0.127
62.000	0.822	62.000	3514341494.345	1735.731	410.158	2145.888	0.191	1.125	0.331	1.892	2.311
63.000	-1.460	63.000	3514341495.846	1277.611	593.481	1871.092	0.317	1.125	0.331	1.892	2.311
64.000	-1.460	64.000	3514341497.346	1713.353	387.267	2100.620	0.184	0.429	0.331	1.892	2.311
65.000	-1.036	65.000	3514341498.846	1458.453	745.427	2203.880	0.338	0.429	0.331	1.892	2.311
66.000	-1.036	66.000	3514341500.344	1831.946	271.038	2102.983	0.129	0.429	0.503	1.892	2.311
67.000	-0.626	67.000	3514341501.846	1677.478	482.875	2160.353	0.224	0.429	0.503	1.892	2.311
68.000	-0.626	68.000	3514341503.346	1550.938	500.438	2051.376	0.244	0.429	0.503	0.297	2.311
69.000	-1.055	69.000	3514341504.845	1770.674	539.707	2310.381	0.234	0.429	0.503	0.297	2.311
70.000	-1.055	70.000	3514341506.346	1375.824	750.361	2126.185	0.353	0.429	0.503	0.297	-1.169
71.000	0.202	71.000	3514341507.845	1873.060	439.955	2313.015	0.190	0.429	0.503	0.297	-1.169
72.000	0.202	72.000	3514341509.344	1517.904	436.008	1953.912	0.223	-1.842	0.503	0.297	-1.169
73.000	-1.736	73.000	3514341510.845	2048.041	48.347	2096.387	0.023	-1.842	0.503	0.297	-1.169
74.000	-1.736	74.000	3514341512.345	1133.888	775.422	1909.310	0.406	-1.842	0.180	0.297	-1.169
75.000	-1.645	75.000	3514341513.846	1734.133	552.830	2286.962	0.242	-1.842	0.180	0.297	-1.169
76.000	-1.645	76.000	3514341515.346	1313.486	910.694	2224.181	0.409	-1.842	0.180	1.050	-1.169
77.000	-2.886	77.000	3514341516.846	1364.724	927.961	2292.685	0.405	-1.842	0.180	1.050	-1.169
78.000	-2.886	78.000	3514341518.346	1676.412	662.646	2339.058	0.283	-1.842	0.180	1.050	0.290
79.000	-3.098	79.000	3514341519.846	2062.560	230.387	2292.947	0.100	-1.842	0.180	1.050	0.290
80.000	-3.098	80.000	3514341521.345	1273.793	817.849	2091.642	0.391	3.371	0.180	1.050	0.290
81.000	0.341	81.000	3514341522.845	1476.967	602.361	2079.328	0.290	3.371	0.180	1.050	0.290
82.000	0.341	82.000	3514341524.345	1794.339	306.755	2101.094	0.146	3.371	1.476	1.050	0.290
83.000	1.797	83.000	3514341525.845	1559.108	689.089	2248.196	0.307	3.371	1.476	1.050	0.290
84.000	1.797	84.000	3514341527.345	1815.118	584.601	2399.719	0.244	3.371	1.476	-1.069	0.290
85.000	2.719	85.000	3514341528.845	1553.691	804.430	2358.121	0.341	3.371	1.476	-1.069	0.290
86.000	2.719	86.000	3514341530.345	1590.765	850.606	2441.371	0.348	3.371	1.476	-1.069	2.557
87.000	0.116	87.000	3514341531.846	1399.800	594.862	1994.662	0.298	3.371	1.476	-1.069	2.557
88.000	0.116	88.000	3514341533.344	1998.934	295.902	2294.836	0.129	-1.264	1.476	-1.069	2.557
89.000	-1.140	89.000	3514341534.846	1746.831	455.742	2202.573	0.207	-1.264	1.476	-1.069	2.557
90.000	-1.140	90.000	3514341536.346	1620.868	612.721	2233.588	0.274	-1.264	-0.553	-1.069	2.557
91.000	-1.742	91.000	3514341537.845	1836.918	305.176	2142.095	0.142	-1.264	-0.553	-1.069	2.557
92.000	-1.742	92.000	3514341539.347	1537.485	1008.374	2545.859	0.396	-1.264	-0.553	0.064	2.557
93.000	-1.964	93.000	3514341540.845	1736.530	531.321	2267.851	0.234	-1.264	-0.553	0.064	2.557
94.000	-1.964	94.000	3514341542.345	1337.462	642.321	1979.783	0.324	-1.264	-0.553	0.064	-1.490
95.000	-0.448	95.000	3514341543.845	1743.856	283.075	2026.931	0.140	-1.264	-0.553	0.064	-1.490
96.000	-0.448	96.000	3514341545.345	1802.065	378.486	2180.550	0.174	0.593	-0.553	0.064	-1.490
97.000	0.183	97.000	3514341546.846	1535.886	594.073	2129.959	0.279	0.593	-0.553	0.064	-1.490
98.000	0.183	98.000	3514341548.346	1337.685	416.966	1754.650	0.238	0.593	2.232	0.064	-1.490
99.000	2.476	99.000	3514341549.846	1141.525	713.854	1855.379	0.385	0.593	2.232	0.064	-1.490
100.000	2.476	100.000	3514341551.346	1838.339	455.248	2293.588	0.198	0.593	2.232	0.793	-1.490
101.000	1.477	101.000	3514341552.846	1428.704	515.534	1944.238	0.265	0.593	2.232	0.793	-1.490
102.000	1.477	102.000	3514341554.346	1775.691	678.630	2454.321	0.277	0.593	2.232	0.793	0.298
103.000	1.192	103.000	3514341555.846	1498.546	432.160	1930.706	0.224	0.593	2.232	0.793	0.298
104.000	1.192	104.000	3514341557.344	1359.485	676.163	2035.648	0.332	-0.363	2.232	0.793	0.298
105.000	0.850	105.000	3514341558.845	1670.552	377.104	2047.656	0.184	-0.363	2.232	0.793	0.298
106.000	0.850	106.000	3514341560.346	1528.161	657.022	2185.183	0.301	-0.363	-1.639	0.793	0.298
107.000	-0.807	107.000	3514341561.846	1726.274	595.454	2321.728	0.256	-0.363	-1.639	0.793	0.298
108.000	-0.807	108.000	3514341563.345	1667.710	744.539	2412.250	0.309	-0.363	-1.639	0.100	0.298
109.000	-1.127	109.000	3514341564.845	1380.841	908.129	2288.970	0.397	-0.363	-1.639	0.100	0.298
110.000	-1.127	110.000	3514341566.346	1831.013	525.499	2356.513	0.223	-0.363	-1.639	0.100	0.953
111.000	-2.115	111.000	3514341567.845	1367.965	826.433	2194.398	0.377	-0.363	-1.639	0.100	0.953
112.000	-2.115	112.000	3514341569.345	1950.938	457.320	2408.258	0.190	1.025	-1.639	0.100	0.953
113.000	-1.016	113.000	3514341570.846	1319.347	423.675	1743.022	0.243	1.025	-1.639	0.100	0.953
114.000	-1.016	114.000	3514341572.347	1874.614	322.246	2196.860	0.147	1.025	0.459	0.100	0.953
115.000	-0.553	115.000	3514341573.846	1561.816	500.043	2061.859	0.243	1.025	0.459	0.100	0.953
116.000	-0.553	116.000	3514341575.345	1754.201	441.040	2195.241	0.201	1.025	0.459	-1.529	0.953
117.000	0.821	117.000	3514341576.846	1771.651	450.414	2222.064	0.203	1.025	0.459	-1.529	0.953
118.000	0.821	118.000	3514341578.345	1626.063	387.563	2013.626	0.192	1.025	0.459	-1.529	-1.643
119.000	2.511	119.000	3514341579.847	1726.007	252.587	1978.594	0.128	1.025	0.459	-1.529	-1.643
120.000	2.511	120.000	3514341581.344	1683.472	316.622	2000.094	0.158	-0.848	0.459	-1.529	-1.643
121.000	1.698	121.000	3514341582.845	1674.414	400.686	2075.100	0.193	-0.848	0.459	-1.529	-1.643
122.000	1.698	122.000	3514341584.346	1690.132	797.129	2487.261	0.320	-0.848	-0.366	-1.529	-1.643
123.000	1.317	123.000	3514341585.847	1662.693	559.539	2222.232	0.252	-0.848	-0.366	-1.529	-1.643
124.000	1.317	124.000	3514341587.346	1764.058	630.875	2394.933	0.263	-0.848	-0.366	-0.090	-1.643
125.000	1.249	125.000	3514341588.846	1570.163	391.411	1961.574	0.200	-0.848	-0.366	-0.090	-1.643
126.000	1.249	126.000	3514341590.347	1626.729	455.150	2081.878	0.219	-0.848	-0.366	-0.090	0.270
127.000	1.015	127.000	3514341591.846	1647.020	264.723	1911.742	0.138	-0.848	-0.366	-0.090	0.270
128.000	1.015	128.000	3514341593.346	1823.732	510.600	2334.332	0.219	1.121	-0.366	-0.090	0.270
129.000	2.229	129.000	3514341594.845	1361.749	753.419	2115.168	0.356	1.121	-0.366	-0.090	0.270
130.000	2.229	130.000	3514341596.345	1968.698	283.667	2252.365	0.126	1.121	0.102	-0.090	0.270
131.000	2.321	131.000	3514341597.846	1346.565	881.982	2228.547	0.396	1.121	0.102	-0.090	0.270
132.000	2.321	132.000	3514341599.346	1896.725	441.830	2338.555	0.189	1.121	0.102	0.168	0.270
133.000	1.979	133.000	3514341600.847	1314.241	1073.100	2387.341	0.449	1.121	0.102	0.168	0.270
134.000	1.979	134.000	3514341602.348	2138.439	223.579	2362.018	0.095	1.121	0.102	0.168	0.706
135.000	1.274	135.000	3514341603.846	976.490	904.774	1881.265	0.481	1.121	0.102	0.168	0.706
136.000	1.274	136.000	3514341605.347	1547.475	600.387	2147.862	0.280	-2.026	0.102	0.168	0.706
137.000	-0.756	137.000	3514341606.847	1630.325	510.600	2140.926	0.238	-2.026	0.102	0.168	0.706
138.000	-0.756	138.000	3514341608.347	1849.173	109.619	1958.792	0.056	-2.026	-1.820	0.168	0.706
139.000	-2.677	139.000	3514341609.846	1541.214	544.443	2085.657	0.261	-2.026	-1.820	0.168	0.706
140.000	-2.677	140.000	3514341611.346	1585.392	612.819	2198.212	0.279	-2.026	-1.820	-3.123	0.706
141.000	0.418	141.000	3514341612.846	1946.010	146.619	2092.628	0.070	-2.026	-1.820	-3.123	0.706
142.000	0.418	142.000	3514341614.345	1353.136	945.129	2298.265	0.411	-2.026	-1.820	-3.123	-1.772
143.000	2.281	143.000	3514341615.846	2003.019	160.432	2163.451	0.074	-2.026	-1.820	-3.123	-1.772
144.000	2.281	144.000	3514341617.346	1481.185	538.129	2019.314	0.266	-1.606	-1.820	-3.123	-1.772
145.000	0.590	145.000	3514341618.846	1753.402	453.768	2207.171	0.206	-1.606	-1.820	-3.123	-1.772
146.000	0.590	146.000	3514341620.346	1279.476	533.491	1812.967	0.294	-1.606	0.156	-3.123	-1.772
147.000	0.648	147.000	3514341621.847	1731.380	273.307	2004.686	0.136	-1.606	0.156	-3.123	-1.772
148.000	0.648	148.000	3514341623.348	1629.881	399.995	2029.876	0.197	-1.606	0.156	3.002	-1.772
149.000	-2.533	149.000	3514341624.847	1040.826	970.190	2011.016	0.482	-1.606	0.156	3.002	-1.772
150.000	-2.533	150.000	3514341626.347	2020.557	192.894	2213.451	0.087	-1.606	0.156	3.002	1.693
151.000	-4.215	151.000	3514341627.846	1332.623	911.878	2244.501	0.406	-1.606	0.156	3.002	1.693
152.000	-4.215	152.000	3514341629.347	1668.953	456.827	2125.780	0.215	0.780	0.156	3.002	1.693
153.000	-3.484	153.000	3514341630.845	1706.782	322.936	2029.718	0.159	0.780	0.156	3.002	1.693
154.000	-3.484	154.000	3514341632.345	1655.678	389.536	2045.214	0.190	0.780	0.534	3.002	1.693
155.000	-3.027	155.000	3514341633.847	1777.778	357.075	2134.853	0.167	0.780	0.534	3.002	1.693
156.000	-3.027	156.000	3514341635.346	1585.570	836.299	2421.869	0.345	0.780	0.534	-3.479	1.693
157.000	0.438	157.000	3514341636.846	2208.325	115.637	2323.962	0.050	0.780	0.534	-3.479	1.693
158.000	0.438	158.000	3514341638.347	1084.294	929.342	2013.636	0.462	0.780	0.534	-3.479	-1.684
159.000	2.217	159.000	3514341639.847	1704.029	426.339	2130.368	0.200	0.780	0.534	-3.479	-1.684
160.000	2.217	160.000	3514341641.347	1204.529	489.190	1693.719	0.289	0.276	0.534	-3.479	-1.684
161.000	2.455	161.000	3514341642.846	1572.783	334.184	1906.967	0.175	0.276	0.534	-3.479	-1.684
162.000	2.455	162.000	3514341644.347	1631.036	425.648	2056.684	0.207	0.276	1.567	-3.479	-1.684
163.000	4.020	163.000	3514341645.846	1065.823	710.302	1776.125	0.400	0.276	1.567	-3.479	-1.684
164.000	4.020	164.000	3514341647.347	1765.790	393.384	2159.174	0.182	0.276	1.567	3.624	-1.684
165.000	0.201	165.000	3514341648.846	845.022	1077.836	1922.857	0.561	0.276	1.567	3.624	-1.684
166.000	0.201	166.000	3514341650.347	1946.320	124.813	2071.134	0.060	0.276	1.567	3.624	0.781
167.000	-0.519	167.000	3514341651.847	1193.828	714.643	1908.472	0.374	0.276	1.567	3.624	0.781
168.000	-0.519	168.000	3514341653.347	1521.367	331.915	1853.282	0.179	0.279	1.567	3.624	0.781
169.000	-0.266	169.000	3514341654.847	1465.867	560.526	2026.393	0.277	0.279	1.567	3.624	0.781
170.000	-0.266	170.000	3514341656.347	1832.434	213.416	2045.850	0.104	0.279	-1.916	3.624	0.781
171.000	-2.281	171.000	3514341657.847	1354.246	380.755	1735.001	0.219	0.279	-1.916	3.624	0.781
180.000	0.947	180.000	3514341671.347	1272.772	636.499	1909.271	0.333	-1.516	-1.274	2.072	-1.719
181.000	-0.970	181.000	3514341672.847	1559.374	551.251	2110.625	0.261	-1.516	-1.274	2.072	-1.719
182.000	-0.970	182.000	3514341674.348	1333.022	591.606	1924.628	0.307	-1.516	-1.274	2.072	0.936
183.000	-1.811	183.000	3514341675.847	1661.405	419.926	2081.331	0.202	-1.516	-1.274	2.072	0.936
184.000	-1.811	184.000	3514341677.348	1320.146	620.318	1940.464	0.320	1.953	-1.274	2.072	0.936
185.000	0.223	185.000	3514341678.847	1535.531	588.745	2124.275	0.277	1.953	-1.274	2.072	0.936
186.000	0.223	186.000	3514341680.347	1556.311	200.195	1756.505	0.114	1.953	1.071	2.072	0.936
187.000	1.317	187.000	3514341681.847	1689.066	418.150	2107.216	0.198	1.953	1.071	2.072	0.936
188.000	1.317	188.000	3514341683.347	1526.207	461.760	1987.968	0.232	1.953	1.071	0.407	0.936
189.000	0.840	189.000	3514341684.847	1300.078	852.974	2153.052	0.396	1.953	1.071	0.407	0.936
190.000	0.840	190.000	3514341686.347	1390.965	691.753	2082.717	0.332	1.953	1.071	0.407	1.038
191.000	-0.193	191.000	3514341687.847	1362.770	594.665	1957.435	0.304	1.953	1.071	0.407	1.038
192.000	-0.193	192.000	3514341689.347	1440.959	354.016	1794.975	0.197	-1.436	1.071	0.407	1.038
193.000	-1.615	193.000	3514341690.848	1729.204	219.336	1948.540	0.113	-1.436	1.071	0.407	1.038
194.000	-1.615	194.000	3514341692.348	1576.779	290.771	1867.550	0.156	-1.436	0.298	0.407	1.038
195.000	-1.327	195.000	3514341693.848	1554.623	462.451	2017.074	0.229	-1.436	0.298	0.407	1.038
196.000	-1.327	196.000	3514341695.347	1792.874	87.517	1880.391	0.047	-1.436	0.298	-0.563	1.038
197.000	-0.752	197.000	3514341696.848	1427.506	534.478	1961.984	0.272	-1.436	0.298	-0.563	1.038
198.000	-0.752	198.000	3514341698.347	1294.173	707.243	2001.416	0.353	-1.436	0.298	-0.563	-0.938
199.000	0.221	199.000	3514341699.847	1199.334	457.912	1657.246	0.276	-1.436	0.298	-0.563	-0.938
200.000	0.221	200.000	3514341701.346	1349.983	669.059	2019.043	0.331	0.380	0.298	-0.563	-0.938
201.000	0.559	201.000	3514341702.845	1714.685	416.966	2131.651	0.196	0.380	0.298	-0.563	-0.938
202.000	0.559	202.000	3514341704.347	1620.868	285.936	1906.804	0.150	0.380	-1.608	-0.563	-0.938
203.000	-1.071	203.000	3514341705.848	1684.005	481.494	2165.499	0.222	0.380	-1.608	-0.563	-0.938
204.000	-1.071	204.000	3514341707.347	1295.194	589.139	1884.333	0.313	0.380	-1.608	0.712	-0.938
205.000	-1.799	205.000	3514341708.848	1252.481	680.801	1933.282	0.352	0.380	-1.608	0.712	-0.938
206.000	-1.799	206.000	3514341710.349	1809.879	336.750	2146.629	0.157	0.380	-1.608	0.712	0.485
207.000	-2.333	207.000	3514341711.848	1040.693	888.395	1929.088	0.461	0.380	-1.608	0.712	0.485
208.000	-2.333	208.000	3514341713.348	1453.924	510.699	1964.623	0.260	-0.402	-1.608	0.712	0.485
209.000	-2.740	209.000	3514341714.847	1531.357	400.784	1932.142	0.207	-0.402	-1.608	0.712	0.485
210.000	-2.740	210.000	3514341716.347	1718.104	136.357	1854.461	0.074	-0.402	0.795	0.712	0.485
211.000	-1.969	211.000	3514341717.847	1698.124	355.299	2053.423	0.173	-0.402	0.795	0.712	0.485
212.000	-1.969	212.000	3514341719.347	1529.537	549.673	2079.209	0.264	-0.402	0.795	-1.718	0.485
213.000	-0.260	213.000	3514341720.847	1496.548	624.857	2121.405	0.295	-0.402	0.795	-1.718	0.485
214.000	-0.260	214.000	3514341722.347	1445.177	816.270	2261.447	0.361	-0.402	0.795	-1.718	-1.765
215.000	1.541	215.000	3514341723.848	1605.861	336.454	1942.314	0.173	-0.402	0.795	-1.718	-1.765
216.000	1.541	216.000	3514341725.348	1314.596	598.019	1912.616	0.313	-1.178	0.795	-1.718	-1.765
217.000	0.246	217.000	3514341726.848	1509.291	432.950	1942.241	0.223	-1.178	0.795	-1.718	-1.765
218.000	0.246	218.000	3514341728.348	1627.261	442.126	2069.387	0.214	-1.178	0.804	-1.718	-1.765
219.000	1.055	219.000	3514341729.847	1716.550	590.027	2306.577	0.256	-1.178	0.804	-1.718	-1.765
220.000	1.055	220.000	3514341731.347	1607.459	427.424	2034.884	0.210	-1.178	0.804	0.584	-1.765
221.000	0.527	221.000	3514341732.847	1447.397	605.320	2052.718	0.295	-1.178	0.804	0.584	-1.765
222.000	0.527	222.000	3514341734.348	1443.934	507.147	1951.081	0.260	-1.178	0.804	0.584	1.227
223.000	-0.615	223.000	3514341735.847	1245.865	617.851	1863.717	0.332	-1.178	0.804	0.584	1.227
224.000	-0.615	224.000	3514341737.347	1662.515	358.456	2020.971	0.177	-0.082	0.804	0.584	1.227
225.000	-0.843	225.000	3514341738.847	1798.246	276.760	2075.006	0.133	-0.082	0.804	0.584	1.227
226.000	-0.843	226.000	3514341740.347	1701.232	599.993	2301.224	0.261	-0.082	-0.403	0.584	1.227
227.000	-1.280	227.000	3514341741.848	1346.476	538.918	1885.394	0.286	-0.082	-0.403	0.584	1.227
228.000	-1.280	228.000	3514341743.348	2121.079	302.808	2423.887	0.125	-0.082	-0.403	-0.308	1.227
229.000	-0.878	229.000	3514341744.848	1217.849	708.822	1926.671	0.368	-0.082	-0.403	-0.308	1.227
230.000	-0.878	230.000	3514341746.348	1241.381	879.713	2121.094	0.415	-0.082	-0.403	-0.308	-1.356
231.000	0.576	231.000	3514341747.848	1385.903	367.435	1753.338	0.210	-0.082	-0.403	-0.308	-1.356
232.000	0.576	232.000	3514341749.347	1678.721	478.830	2157.551	0.222	1.121	-0.403	-0.308	-1.356
233.000	1.691	233.000	3514341750.847	1606.660	444.987	2051.647	0.217	1.121	-0.403	-0.308	-1.356
234.000	1.691	234.000	3514341752.348	1549.650	355.102	1904.752	0.186	1.121	-1.416	-0.308	-1.356
235.000	0.164	235.000	3514341753.847	1918.881	391.806	2310.687	0.170	1.121	-1.416	-0.308	-1.356
236.000	0.164	236.000	3514341755.347	1221.667	843.700	2065.367	0.408	1.121	-1.416	0.412	-1.356
237.000	-0.111	237.000	3514341756.848	1469.641	806.996	2276.637	0.354	1.121	-1.416	0.412	-1.356
238.000	-0.111	238.000	3514341758.349	1430.214	749.966	2180.180	0.344	1.121	-1.416	0.412	0.109
239.000	-0.112	239.000	3514341759.849	2014.519	236.702	2251.220	0.105	1.121	-1.416	0.412	0.109
240.000	-0.112	240.000	3514341761.348	1063.603	741.283	1804.886	0.411	-0.268	-1.416	0.412	0.109
241.000	-0.564	241.000	3514341762.848	1757.576	362.896	2120.472	0.171	-0.268	-1.416	0.412	0.109
242.000	-0.564	242.000	3514341764.349	1589.078	501.918	2090.995	0.240	-0.268	2.103	0.412	0.109
243.000	1.458	243.000	3514341765.848	1274.770	891.060	2165.829	0.411	-0.268	2.103	0.412	0.109
244.000	1.458	244.000	3514341767.348	1963.414	360.232	2323.647	0.155	-0.268	2.103	-0.092	0.109
245.000	1.656	245.000	3514341768.847	1369.075	1004.724	2373.799	0.423	-0.268	2.103	-0.092	0.109
246.000	1.656	246.000	3514341770.348	1792.163	741.481	2533.644	0.293	-0.268	2.103	-0.092	2.689
247.000	-0.931	247.000	3514341771.847	1094.594	1066.982	2161.576	0.494	-0.268	2.103	-0.092	2.689
248.000	-0.931	248.000	3514341773.347	2039.915	242.128	2282.044	0.106	0.606	2.103	-0.092	2.689
249.000	-0.427	249.000	3514341774.847	1576.424	636.993	2213.416	0.288	0.606	2.103	-0.092	2.689
250.000	-0.427	250.000	3514341776.349	1583.084	522.440	2105.524	0.248	0.606	-2.256	-0.092	2.689
251.000	-2.853	251.000	3514341777.848	1923.232	580.259	2503.491	0.232	0.606	-2.256	-0.092	2.689
252.000	-2.853	252.000	3514341779.349	1617.671	709.118	2326.789	0.305	0.606	-2.256	-1.149	2.689
253.000	-1.525	253.000	3514341780.848	1740.215	366.646	2106.861	0.174	0.606	-2.256	-1.149	2.689
254.000	-1.525	254.000	3514341782.349	1566.744	715.827	2282.572	0.314	0.606	-2.256	-1.149	-3.410
255.000	2.091	255.000	3514341783.849	1720.724	342.768	2063.492	0.166	0.606	-2.256	-1.149	-3.410
256.000	2.091	256.000	3514341785.347	1252.037	683.070	1935.107	0.353	-0.349	-2.256	-1.149	-3.410
257.000	1.587	257.000	3514341786.847	1581.174	751.742	2332.917	0.322	-0.349	-2.256	-1.149	-3.410
258.000	1.587	258.000	3514341788.348	1741.148	518.691	2259.839	0.230	-0.349	0.642	-1.149	-3.410
259.000	1.975	259.000	3514341789.848	1787.990	514.054	2302.043	0.223	-0.349	0.642	-1.149	-3.410
260.000	1.975	260.000	3514341791.347	1547.386	841.036	2388.421	0.352	-0.349	0.642	1.228	-3.410
261.000	0.920	261.000	3514341792.847	1748.163	425.056	2173.219	0.196	-0.349	0.642	1.228	-3.410
262.000	0.920	262.000	3514341794.348	1357.975	725.990	2083.965	0.348	-0.349	0.642	1.228	1.645
263.000	-0.577	263.000	3514341795.848	1729.115	443.507	2172.622	0.204	-0.349	0.642	1.228	1.645
264.000	-0.577	264.000	3514341797.348	1301.188	823.670	2124.858	0.388	-0.816	0.642	1.228	1.645
265.000	-1.580	265.000	3514341798.848	1593.517	279.424	1872.942	0.149	-0.816	0.642	1.228	1.645
266.000	-1.580	266.000	3514341800.348	1238.228	615.286	1853.514	0.332	-0.816	1.134	1.228	1.645
267.000	-0.578	267.000	3514341801.848	1581.574	365.758	1947.332	0.188	-0.816	1.134	1.228	1.645
268.000	-0.578	268.000	3514341803.348	1512.710	636.697	2149.406	0.296	-0.816	1.134	1.344	1.645
269.000	-1.792	269.000	3514341804.848	1718.281	497.872	2216.154	0.225	-0.816	1.134	1.344	1.645
270.000	-1.792	270.000	3514341806.348	1196.048	782.526	1978.574	0.395	-0.816	1.134	1.344	1.615
271.000	-3.286	271.000	3514341807.848	1521.057	475.574	1996.630	0.238	-0.816	1.134	1.344	1.615
272.000	-3.286	272.000	3514341809.347	1548.185	524.118	2072.303	0.253	1.608	1.134	1.344	1.615
273.000	-1.847	273.000	3514341810.848	1814.941	289.587	2104.528	0.138	1.608	1.134	1.344	1.615
274.000	-1.847	274.000	3514341812.346	1493.529	268.472	1762.001	0.152	1.608	0.954	1.344	1.615
275.000	-1.005	275.000	3514341813.849	1732.623	427.918	2160.541	0.198	1.608	0.954	1.344	1.615
276.000	-1.005	276.000	3514341815.348	1702.164	470.147	2172.312	0.216	1.608	0.954	1.503	1.615
277.000	-2.512	277.000	3514341816.849	1184.371	816.172	2000.543	0.408	1.608	0.954	1.503	1.615
278.000	-2.512	278.000	3514341818.348	2043.734	235.814	2279.548	0.103	1.608	0.954	1.503	0.130
279.000	-2.602	279.000	3514341819.848	1340.925	484.256	1825.182	0.265	1.608	0.954	1.503	0.130
280.000	-2.602	280.000	3514341821.348	1507.470	581.345	2088.815	0.278	0.130	0.954	1.503	0.130
281.000	-2.604	281.000	3514341822.848	1607.903	247.456	1855.359	0.133	0.130	0.954	1.503	0.130
282.000	-2.604	282.000	3514341824.348	1387.590	398.318	1785.908	0.223	0.130	0.162	1.503	0.130
283.000	-2.534	283.000	3514341825.848	1714.508	461.760	2176.268	0.212	0.130	0.162	1.503	0.130
284.000	-2.534	284.000	3514341827.348	1628.549	828.505	2457.054	0.337	0.130	0.162	-2.680	0.130
285.000	0.279	285.000	3514341828.849	1515.862	338.131	1853.993	0.182	0.130	0.162	-2.680	0.130
286.000	0.279	286.000	3514341830.347	1014.541	1188.836	2203.377	0.540	0.130	0.162	-2.680	0.114
287.000	0.212	287.000	3514341831.849	1430.880	642.025	2072.905	0.310	0.130	0.162	-2.680	0.114
288.000	0.212	288.000	3514341833.349	1206.704	781.934	1988.638	0.393	0.789	0.162	-2.680	0.114
289.000	0.844	289.000	3514341834.849	1495.438	349.478	1844.916	0.189	0.789	0.162	-2.680	0.114
290.000	0.844	290.000	3514341836.349	1455.344	481.987	1937.332	0.249	0.789	1.100	-2.680	0.114
291.000	1.898	291.000	3514341837.848	1698.834	370.494	2069.328	0.179	0.789	1.100	-2.680	0.114
292.000	1.898	292.000	3514341839.348	1740.348	505.272	2245.621	0.225	0.789	1.100	3.143	0.114
293.000	-1.246	293.000	3514341840.848	956.643	1264.415	2221.058	0.569	0.789	1.100	3.143	0.114
294.000	-1.246	294.000	3514341842.348	1606.571	591.409	2197.980	0.269	0.789	1.100	3.143	0.735
295.000	-1.934	295.000	3514341843.849	1317.394	557.862	1875.256	0.297	0.789	1.100	3.143	0.735
296.000	-1.934	296.000	3514341845.348	1487.845	393.582	1881.427	0.209	0.522	1.100	3.143	0.735
297.000	-1.453	297.000	3514341846.849	1585.215	301.822	1887.036	0.160	0.522	1.100	3.143	0.735
298.000	-1.453	298.000	3514341848.349	1466.711	556.678	2023.389	0.275	0.522	0.404	3.143	0.735
299.000	-0.985	299.000	3514341849.849	1516.617	533.590	2050.207	0.260	0.522	0.404	3.143	0.735
300.000	-0.985	300.000	3514341851.349	1756.643	495.800	2252.444	0.220	0.522	0.404	-2.642	0.735
301.000	1.640	301.000	3514341852.849	1758.508	399.403	2157.911	0.185	0.522	0.404	-2.642	0.735
302.000	1.640	302.000	3514341854.348	1026.795	1042.119	2068.914	0.504	0.522	0.404	-2.642	-0.777
303.000	2.416	303.000	3514341855.848	1318.015	498.662	1816.677	0.274	0.522	0.404	-2.642	-0.777
304.000	2.416	304.000	3514341857.348	1185.037	737.041	1922.078	0.383	1.014	0.404	-2.642	-0.777
305.000	3.517	305.000	3514341858.848	1527.850	510.403	2038.253	0.250	1.014	0.404	-2.642	-0.777
306.000	3.517	306.000	3514341860.348	1808.458	144.843	1953.301	0.074	1.014	-0.353	-2.642	-0.777
307.000	3.210	307.000	3514341861.848	1582.728	514.054	2096.782	0.245	1.014	-0.353	-2.642	-0.777
308.000	3.210	308.000	3514341863.349	1690.265	429.003	2119.268	0.202	1.014	-0.353	2.804	-0.777
309.000	0.401	309.000	3514341864.849	906.294	869.353	1775.647	0.490	1.014	-0.353	2.804	-0.777
310.000	0.401	310.000	3514341866.350	1821.423	381.742	2203.165	0.173	1.014	-0.353	2.804	0.959
311.000	-0.527	311.000	3514341867.850	1288.089	555.592	1843.682	0.301	1.014	-0.353	2.804	0.959
312.000	-0.527	312.000	3514341869.348	1768.942	529.643	2298.585	0.230	-1.551	-0.353	2.804	0.959
313.000	-2.099	313.000	3514341870.849	1707.315	213.712	1921.027	0.111	-1.551	-0.353	2.804	0.959
314.000	-2.099	314.000	3514341872.348	1547.741	431.864	1979.606	0.218	-1.551	-0.376	2.804	0.959
315.000	-2.467	315.000	3514341873.848	1244.578	793.281	2037.858	0.389	-1.551	-0.376	2.804	0.959
316.000	-2.467	316.000	3514341875.348	1554.934	282.680	1837.614	0.154	-1.551	-0.376	-2.784	0.959
317.000	0.285	317.000	3514341876.849	1665.224	527.966	2193.189	0.241	-1.551	-0.376	-2.784	0.959
318.000	0.285	318.000	3514341878.349	1065.201	841.923	1907.125	0.441	-1.551	-0.376	-2.784	-0.624
319.000	0.888	319.000	3514341879.849	1090.154	636.697	1726.851	0.369	-1.551	-0.376	-2.784	-0.624
320.000	0.888	320.000	3514341881.349	1313.842	651.201	1965.042	0.331	0.941	-0.376	-2.784	-0.624
321.000	1.843	321.000	3514341882.849	1470.663	634.329	2104.991	0.301	0.941	-0.376	-2.784	-0.624
322.000	1.843	322.000	3514341884.349	1594.583	134.285	1728.869	0.078	0.941	-2.072	-2.784	-0.624
323.000	-0.399	323.000	3514341885.849	1616.828	234.827	1851.654	0.127	0.941	-2.072	-2.784	-0.624
324.000	-0.399	324.000	3514341887.349	1290.976	487.808	1778.784	0.274	0.941	-2.072	1.766	-0.624
325.000	-2.105	325.000	3514341888.850	1007.925	932.204	1940.129	0.480	0.941	-2.072	1.766	-0.624
326.000	-2.105	326.000	3514341890.349	1746.831	516.422	2263.253	0.228	0.941	-2.072	1.766	-0.328
327.000	-1.748	327.000	3514341891.849	1568.210	456.926	2025.135	0.226	0.941	-2.072	1.766	-0.328
328.000	-1.748	328.000	3514341893.349	1448.107	485.835	1933.942	0.251	-1.968	-2.072	1.766	-0.328
329.000	-3.812	329.000	3514341894.848	1670.463	293.435	1963.898	0.149	-1.968	-2.072	1.766	-0.328
330.000	-3.812	330.000	3514341896.348	1129.448	412.920	1542.369	0.268	-1.968	1.297	1.766	-0.328
331.000	-2.532	331.000	3514341897.848	1724.365	284.456	2008.821	0.142	-1.968	1.297	1.766	-0.328
332.000	-2.532	332.000	3514341899.349	1653.280	466.595	2119.875	0.220	-1.968	1.297	-2.220	-0.328
333.000	-0.348	333.000	3514341900.849	1691.331	443.408	2134.740	0.208	-1.968	1.297	-2.220	-0.328
334.000	-0.348	334.000	3514341902.350	1084.915	830.873	1915.788	0.434	-1.968	1.297	-2.220	0.225
335.000	-0.643	335.000	3514341903.850	1056.011	647.649	1703.659	0.380	-1.968	1.297	-2.220	0.225
336.000	-0.643	336.000	3514341905.349	1097.791	599.795	1697.586	0.353	1.041	1.297	-2.220	0.225
337.000	0.426	337.000	3514341906.848	1652.747	293.534	1946.281	0.151	1.041	1.297	-2.220	0.225
338.000	0.426	338.000	3514341908.349	1380.530	388.550	1769.080	0.220	1.041	0.691	-2.220	0.225
339.000	1.202	339.000	3514341909.849	1482.784	432.654	1915.437	0.226	1.041	0.691	-2.220	0.225
340.000	1.202	340.000	3514341911.348	1593.029	428.510	2021.539	0.212	1.041	0.691	1.989	0.225
341.000	-0.821	341.000	3514341912.849	-52.880	-7.301	-60.182	0.121	1.041	0.691	1.989	0.225
342.000	-0.821	342.000	3514341914.349	-9.946	-1.875	-11.820	0.159	1.041	0.691	1.989	-0.236
343.000	-0.607	343.000	3514341915.850	27.128	61.765	88.894	0.695	1.041	0.691	1.989	-0.236
344.000	-0.607	344.000	3514341917.349	-33.433	-18.056	-51.489	0.351	0.606	0.691	1.989	-0.236
345.000	-0.033	345.000	3514341918.849	-72.017	-146.717	-218.734	0.671	0.606	0.691	1.989	-0.236
346.000	-0.033	346.000	3514341920.350	36.941	50.221	87.162	0.576	0.606	-0.122	1.989	-0.236
347.000	-0.119	347.000	3514341921.849	-22.022	-35.915	-57.937	0.620	0.606	-0.122	1.989	-0.236
384.000	0.118	384.000	3514341977.349	1623.177	292.646	1915.822	0.153	-0.035	-2.452	-0.190	0.095
385.000	0.115	385.000	3514341978.849	1481.097	206.608	1687.705	0.122	-0.035	-2.452	-0.190	0.095
386.000	0.115	386.000	3514341980.349	1669.397	318.891	1988.288	0.160	-0.035	-0.489	-0.190	0.095
387.000	-0.333	387.000	3514341981.849	1722.233	555.001	2277.234	0.244	-0.035	-0.489	-0.190	0.095
388.000	-0.333	388.000	3514341983.349	1642.224	469.160	2111.385	0.222	-0.035	-0.489	-0.327	0.095
389.000	-0.029	389.000	3514341984.849	1251.237	718.195	1969.433	0.365	-0.035	-0.489	-0.327	0.095
390.000	-0.029	390.000	3514341986.351	1200.355	691.654	1892.009	0.366	-0.035	-0.489	-0.327	-0.719
391.000	0.714	391.000	3514341987.850	1794.161	262.158	2056.319	0.127	-0.035	-0.489	-0.327	-0.719
392.000	0.714	392.000	3514341989.350	1353.136	718.393	2071.528	0.347	0.334	-0.489	-0.327	-0.719
393.000	1.119	393.000	3514341990.850	1748.918	295.803	2044.721	0.145	0.334	-0.489	-0.327	-0.719
394.000	1.119	394.000	3514341992.350	1652.880	369.211	2022.092	0.183	0.334	-0.189	-0.327	-0.719
395.000	0.925	395.000	3514341993.850	1645.110	351.056	1996.167	0.176	0.334	-0.189	-0.327	-0.719
396.000	0.925	396.000	3514341995.349	1415.873	553.323	1969.196	0.281	0.334	-0.189	0.008	-0.719
397.000	0.927	397.000	3514341996.850	1469.508	484.454	1953.962	0.248	0.334	-0.189	0.008	-0.719
398.000	0.927	398.000	3514341998.350	1687.868	527.571	2215.439	0.238	0.334	-0.189	0.008	1.930
399.000	-1.159	399.000	3514341999.850	1756.066	566.051	2322.117	0.244	0.334	-0.189	0.008	1.930
400.000	-1.159	400.000	3514342001.349	1669.308	420.024	2089.333	0.201	0.334	-0.189	0.008	1.930
401.000	-0.675	401.000	3514342002.850	1721.212	564.177	2285.389	0.247	0.334	-0.189	0.008	1.930
402.000	-0.675	402.000	3514342004.350	1868.487	410.059	2278.546	0.180	0.334	0.925	0.008	1.930
403.000	0.312	403.000	3514342005.850	1498.946	328.659	1827.605	0.180	0.334	0.925	0.008	1.930
404.000	0.312	404.000	3514342007.350	1409.834	533.491	1943.326	0.275	0.334	0.925	-0.086	1.930
405.000	0.328	405.000	3514342008.850	1602.309	689.779	2292.088	0.301	0.334	0.925	-0.086	1.930
406.000	0.328	406.000	3514342010.350	1144.722	805.121	1949.843	0.413	0.334	0.925	-0.086	-0.376
407.000	0.618	407.000	3514342011.850	1227.573	642.715	1870.288	0.344	0.334	0.925	-0.086	-0.376
408.000	0.618	408.000	3514342013.349	1638.939	393.483	2032.422	0.194	-0.589	0.925	-0.086	-0.376
409.000	0.168	409.000	3514342014.849	1868.398	384.998	2253.396	0.171	-0.589	0.925	-0.086	-0.376
410.000	0.168	410.000	3514342016.350	1641.558	401.179	2042.737	0.196	-0.589	0.833	-0.086	-0.376
411.000	1.179	411.000	3514342017.850	1609.235	575.425	2184.660	0.263	-0.589	0.833	-0.086	-0.376
412.000	1.179	412.000	3514342019.349	1844.822	264.131	2108.953	0.125	-0.589	0.833	0.985	-0.376
413.000	0.101	413.000	3514342020.850	1401.665	1008.374	2410.039	0.418	-0.589	0.833	0.985	-0.376
414.000	0.101	414.000	3514342022.351	1938.240	400.488	2338.728	0.171	-0.589	0.833	0.985	-1.320
415.000	1.325	415.000	3514342023.851	1662.027	419.432	2081.459	0.202	-0.589	0.833	0.985	-1.320
416.000	1.325	416.000	3514342025.350	1290.798	953.417	2244.215	0.425	0.225	0.833	0.985	-1.320
417.000	1.658	417.000	3514342026.850	1531.491	566.643	2098.134	0.270	0.225	0.833	0.985	-1.320
418.000	1.658	418.000	3514342028.350	1664.203	469.160	2133.363	0.220	0.225	-1.216	0.985	-1.320
419.000	0.469	419.000	3514342029.850	1711.799	306.854	2018.653	0.152	0.225	-1.216	0.985	-1.320
420.000	0.469	420.000	3514342031.350	1812.321	427.918	2240.239	0.191	0.225	-1.216	-2.175	-1.320
421.000	2.637	421.000	3514342032.850	1950.849	316.424	2267.273	0.140	0.225	-1.216	-2.175	-1.320
422.000	2.637	422.000	3514342034.350	915.618	1229.388	2145.005	0.573	0.225	-1.216	-2.175	1.965
423.000	0.472	423.000	3514342035.850	1476.834	546.219	2023.053	0.270	0.225	-1.216	-2.175	1.965
424.000	0.472	424.000	3514342037.350	1413.831	313.168	1726.999	0.181	-0.441	-1.216	-2.175	1.965
425.000	0.137	425.000	3514342038.850	1534.865	233.939	1768.804	0.132	-0.441	-1.216	-2.175	1.965
426.000	0.137	426.000	3514342040.351	1833.322	360.824	2194.146	0.164	-0.441	0.343	-2.175	1.965
427.000	0.642	427.000	3514342041.851	1463.070	493.235	1956.305	0.252	-0.441	0.343	-2.175	1.965
428.000	0.642	428.000	3514342043.350	1942.458	426.832	2369.290	0.180	-0.441	0.343	3.815	1.965
429.000	-3.356	429.000	3514342044.851	968.099	1127.169	2095.268	0.538	-0.441	0.343	3.815	1.965
430.000	-3.356	430.000	3514342046.351	1524.919	508.529	2033.448	0.250	-0.441	0.343	3.815	-0.780
431.000	-2.617	431.000	3514342047.851	1583.616	456.728	2040.345	0.224	-0.441	0.343	3.815	-0.780
432.000	-2.617	432.000	3514342049.350	1411.078	420.518	1831.596	0.230	0.283	0.343	3.815	-0.780
433.000	-2.230	433.000	3514342050.850	2043.600	132.904	2176.505	0.061	0.283	0.343	3.815	-0.780
434.000	-2.230	434.000	3514342052.350	1603.730	375.328	1979.058	0.190	0.283	-0.633	3.815	-0.780
435.000	-2.748	435.000	3514342053.850	1734.488	259.099	1993.587	0.130	0.283	-0.633	3.815	-0.780
436.000	-2.748	436.000	3514342055.351	1607.415	600.190	2207.604	0.272	0.283	-0.633	-2.533	-0.780
437.000	-0.291	437.000	3514342056.851	1388.034	626.534	2014.568	0.311	0.283	-0.633	-2.533	-0.780
438.000	-0.291	438.000	3514342058.351	1931.846	652.089	2583.935	0.252	0.283	-0.633	-2.533	0.051
439.000	-0.563	439.000	3514342059.851	1656.610	411.144	2067.754	0.199	0.283	-0.633	-2.533	0.051
440.000	-0.563	440.000	3514342061.350	1283.073	751.446	2034.519	0.369	1.132	-0.633	-2.533	0.051
441.000	0.757	441.000	3514342062.851	1679.787	461.366	2141.153	0.215	1.132	-0.633	-2.533	0.051
442.000	0.757	442.000	3514342064.350	1865.645	454.360	2320.006	0.196	1.132	1.249	-2.533	0.051
443.000	2.145	443.000	3514342065.850	1799.711	415.190	2214.901	0.187	1.132	1.249	-2.533	0.051
444.000	2.145	444.000	3514342067.350	1976.556	511.193	2487.749	0.205	1.132	1.249	-0.516	0.051
445.000	2.544	445.000	3514342068.851	1762.460	457.616	2220.076	0.206	1.132	1.249	-0.516	0.051
446.000	2.544	446.000	3514342070.351	1007.526	1183.902	2191.428	0.540	1.132	1.249	-0.516	1.501
447.000	0.808	447.000	3514342071.851	1301.720	548.686	1850.406	0.297	1.132	1.249	-0.516	1.501
448.000	0.808	448.000	3514342073.351	1575.624	323.726	1899.350	0.170	-0.173	1.249	-0.516	1.501
449.000	0.872	449.000	3514342074.851	1584.593	233.051	1817.644	0.128	-0.173	1.249	-0.516	1.501
450.000	0.872	450.000	3514342076.351	1804.062	492.249	2296.311	0.214	-0.173	0.159	-0.516	1.501
451.000	1.144	451.000	3514342077.851	1921.945	418.544	2340.489	0.179	-0.173	0.159	-0.516	1.501
452.000	1.144	452.000	3514342079.351	1558.708	360.430	1919.138	0.188	-0.173	0.159	2.940	1.501
453.000	-2.014	453.000	3514342080.851	1339.682	765.358	2105.041	0.364	-0.173	0.159	2.940	1.501
454.000	-2.014	454.000	3514342082.351	1695.282	609.267	2304.550	0.264	-0.173	0.159	2.940	-1.110
455.000	-1.022	455.000	3514342083.850	1565.235	365.166	1930.400	0.189	-0.173	0.159	2.940	-1.110
456.000	-1.022	456.000	3514342085.350	1353.669	548.390	1902.058	0.288	0.758	0.159	2.940	-1.110
457.000	-0.048	457.000	3514342086.850	1578.421	398.712	1977.134	0.202	0.758	0.159	2.940	-1.110
458.000	-0.048	458.000	3514342088.350	1581.174	304.387	1885.561	0.161	0.758	0.079	2.940	-1.110
459.000	0.151	459.000	3514342089.850	1732.578	334.776	2067.355	0.162	0.758	0.079	2.940	-1.110
460.000	0.151	460.000	3514342091.351	1644.045	593.185	2237.229	0.265	0.758	0.079	-0.873	-1.110
461.000	0.898	461.000	3514342092.852	1864.313	359.542	2223.855	0.162	0.758	0.079	-0.873	-1.110
462.000	0.898	462.000	3514342094.351	1286.669	984.004	2270.672	0.433	0.758	0.079	-0.873	0.873
463.000	-0.142	463.000	3514342095.852	1691.198	347.110	2038.307	0.170	0.758	0.079	-0.873	0.873
464.000	-0.142	464.000	3514342097.351	1070.219	743.947	1814.166	0.410	-0.354	0.079	-0.873	0.873
465.000	-0.285	465.000	3514342098.851	1439.938	238.379	1678.317	0.142	-0.354	0.079	-0.873	0.873
466.000	-0.285	466.000	3514342100.350	1397.802	434.824	1832.627	0.237	-0.354	0.908	-0.873	0.873
467.000	0.745	467.000	3514342101.850	1650.882	396.838	2047.720	0.194	-0.354	0.908	-0.873	0.873
468.000	0.745	468.000	3514342103.350	1610.079	293.534	1903.612	0.154	-0.354	0.908	2.391	0.873
469.000	-1.830	469.000	3514342104.850	1306.116	585.883	1891.999	0.310	-0.354	0.908	2.391	0.873
470.000	-1.830	470.000	3514342106.351	1745.099	254.166	1999.265	0.127	-0.354	0.908	2.391	2.110
471.000	-4.217	471.000	3514342107.852	1219.536	755.985	1975.521	0.383	-0.354	0.908	2.391	2.110
472.000	-4.217	472.000	3514342109.351	1794.339	155.203	1949.542	0.080	0.838	0.908	2.391	2.110
473.000	-3.148	473.000	3514342110.851	1419.825	245.680	1665.505	0.148	0.838	0.908	2.391	2.110
474.000	-3.148	474.000	3514342112.351	1695.149	321.851	2017.000	0.160	0.838	-0.348	2.391	2.110
475.000	-3.405	475.000	3514342113.852	1596.359	368.915	1965.274	0.188	0.838	-0.348	2.391	2.110
476.000	-3.405	476.000	3514342115.351	1601.110	667.875	2268.985	0.294	0.838	-0.348	-1.606	2.110
477.000	-2.045	477.000	3514342116.851	1680.808	318.694	1999.502	0.159	0.838	-0.348	-1.606	2.110
478.000	-2.045	478.000	3514342118.351	906.027	763.385	1669.412	0.457	0.838	-0.348	-1.606	-2.667
479.000	0.499	479.000	3514342119.852	1568.476	363.982	1932.458	0.188	0.838	-0.348	-1.606	-2.667
480.000	0.499	480.000	3514342121.351	1056.721	744.441	1801.162	0.413	0.106	-0.348	-1.606	-2.667
481.000	0.834	481.000	3514342122.851	1808.236	357.864	2166.100	0.165	0.106	-0.348	-1.606	-2.667
482.000	0.834	482.000	3514342124.351	1479.543	448.835	1928.378	0.233	0.106	0.938	-1.606	-2.667
483.000	1.930	483.000	3514342125.851	1312.909	629.099	1942.009	0.324	0.106	0.938	-1.606	-2.667
484.000	1.930	484.000	3514342127.351	1396.692	562.795	1959.488	0.287	0.106	0.938	2.621	-2.667
485.000	-0.930	485.000	3514342128.851	1107.426	679.222	1786.648	0.380	0.106	0.938	2.621	-2.667
486.000	-0.930	486.000	3514342130.352	1576.734	235.715	1812.449	0.130	0.106	0.938	2.621	1.980
487.000	-3.180	487.000	3514342131.853	1463.559	365.659	1829.218	0.200	0.106	0.938	2.621	1.980
488.000	-3.180	488.000	3514342133.351	1695.771	527.867	2223.638	0.237	0.594	0.938	2.621	1.980
489.000	-2.363	489.000	3514342134.850	1656.699	254.363	1911.062	0.133	0.594	0.938	2.621	1.980
490.000	-2.363	490.000	3514342136.352	1489.533	446.862	1936.394	0.231	0.594	-0.323	2.621	1.980
491.000	-2.521	491.000	3514342137.852	1657.231	334.086	1991.317	0.168	0.594	-0.323	2.621	1.980
492.000	-2.521	492.000	3514342139.352	1511.200	524.315	2035.515	0.258	0.594	-0.323	-2.201	1.980
493.000	-0.592	493.000	3514342140.851	1239.205	790.518	2029.723	0.389	0.594	-0.323	-2.201	1.980
494.000	-0.592	494.000	3514342142.352	1279.165	673.795	1952.960	0.345	0.594	-0.323	-2.201	0.330
495.000	-1.174	495.000	3514342143.853	1419.603	558.059	1977.662	0.282	0.594	-0.323	-2.201	0.330
496.000	-1.174	496.000	3514342145.352	1936.907	65.909	2002.817	0.033	0.859	-0.323	-2.201	0.330
497.000	0.034	497.000	3514342146.852	1515.507	435.318	1950.824	0.223	0.859	-0.323	-2.201	0.330
498.000	0.034	498.000	3514342148.352	1627.839	289.686	1917.524	0.151	0.859	0.790	-2.201	0.330
499.000	1.142	499.000	3514342149.851	1564.835	395.555	1960.390	0.202	0.859	0.790	-2.201	0.330
500.000	1.142	500.000	3514342151.351	2061.849	137.147	2198.996	0.062	0.859	0.790	-0.391	0.330
501.000	1.407	501.000	3514342152.851	1502.187	549.969	2052.155	0.268	0.859	0.790	-0.391	0.330
502.000	1.407	502.000	3514342154.353	1621.667	656.134	2277.801	0.288	0.859	0.790	-0.391	-2.194
503.000	3.413	503.000	3514342155.853	1493.040	333.296	1826.337	0.182	0.859	0.790	-0.391	-2.194
504.000	3.413	504.000	3514342157.350	1446.198	367.139	1813.337	0.202	-0.634	0.790	-0.391	-2.194
505.000	3.068	505.000	3514342158.851	1442.380	439.363	1881.743	0.233	-0.634	0.790	-0.391	-2.194
506.000	3.068	506.000	3514342160.352	1660.384	287.515	1947.899	0.148	-0.634	-1.227	-0.391	-2.194
507.000	2.056	507.000	3514342161.852	1606.971	354.904	1961.875	0.181	-0.634	-1.227	-0.391	-2.194
508.000	2.056	508.000	3514342163.353	1630.059	366.646	1996.704	0.184	-0.634	-1.227	0.177	-2.194
509.000	1.600	509.000	3514342164.852	1424.930	639.558	2064.488	0.310	-0.634	-1.227	0.177	-2.194
510.000	1.600	510.000	3514342166.352	1778.843	278.240	2057.083	0.135	-0.634	-1.227	0.177	0.176
511.000	1.203	511.000	3514342167.853	1458.808	414.894	1873.702	0.221	-0.634	-1.227	0.177	0.176
512.000	1.203	512.000	3514342169.352	981.063	867.577	1848.640	0.469	-0.756	-1.227	0.177	0.176
513.000	0.810	513.000	3514342170.852	1326.629	339.907	1666.536	0.204	-0.756	-1.227	0.177	0.176
514.000	0.810	514.000	3514342172.351	1483.361	184.310	1667.670	0.111	-0.756	0.024	0.177	0.176
515.000	1.028	515.000	3514342173.852	1396.825	416.374	1813.199	0.230	-0.756	0.024	0.177	0.176
516.000	1.028	516.000	3514342175.351	1584.726	333.494	1918.220	0.174	-0.756	0.024	-1.536	0.176
517.000	2.436	517.000	3514342176.852	1927.140	186.875	2114.014	0.088	-0.756	0.024	-1.536	0.176
518.000	2.436	518.000	3514342178.354	1113.598	994.364	2107.961	0.472	-0.756	0.024	-1.536	2.181
519.000	-0.077	519.000	3514342179.853	1028.349	657.219	1685.569	0.390	-0.756	0.024	-1.536	2.181
520.000	-0.077	520.000	3514342181.351	1667.577	133.693	1801.270	0.074	-0.822	0.024	-1.536	2.181
521.000	-0.606	521.000	3514342182.852	1654.390	237.294	1891.683	0.125	-0.822	0.024	-1.536	2.181
522.000	-0.606	522.000	3514342184.352	1500.189	557.566	2057.754	0.271	-0.822	-0.491	-1.536	2.181
523.000	-0.916	523.000	3514342185.852	1726.451	228.808	1955.260	0.117	-0.822	-0.491	-1.536	2.181
524.000	-0.916	524.000	3514342187.352	1475.236	467.286	1942.522	0.241	-0.822	-0.491	3.373	2.181
525.000	-4.706	525.000	3514342188.852	826.951	742.369	1569.320	0.473	-0.822	-0.491	3.373	2.181
526.000	-4.706	526.000	3514342190.352	1873.815	180.165	2053.980	0.088	-0.822	-0.491	3.373	-2.778
527.000	-2.145	527.000	3514342191.852	1294.794	280.707	1575.501	0.178	-0.822	-0.491	3.373	-2.778
528.000	-2.145	528.000	3514342193.352	1178.111	499.254	1677.365	0.298	1.281	-0.491	3.373	-2.778
529.000	-0.525	529.000	3514342194.852	1271.884	475.672	1747.556	0.272	1.281	-0.491	3.373	-2.778
530.000	-0.525	530.000	3514342196.353	1503.607	159.051	1662.658	0.096	1.281	1.087	3.373	-2.778
531.000	0.692	531.000	3514342197.852	1469.064	483.270	1952.334	0.248	1.281	1.087	3.373	-2.778
532.000	0.692	532.000	3514342199.352	1527.450	550.659	2078.109	0.265	1.281	1.087	-3.391	-2.778
533.000	3.917	533.000	3514342200.854	1479.365	411.835	1891.200	0.218	1.281	1.087	-3.391	-2.778
534.000	3.917	534.000	3514342202.354	709.468	1193.572	1903.040	0.627	1.281	1.087	-3.391	1.051
535.000	2.591	535.000	3514342203.854	1495.704	528.262	2023.966	0.261	1.281	1.087	-3.391	1.051
536.000	2.591	536.000	3514342205.352	1395.982	442.816	1838.798	0.241	-1.553	1.087	-3.391	1.051
537.000	1.303	537.000	3514342206.853	1605.683	546.219	2151.902	0.254	-1.553	1.087	-3.391	1.051
538.000	1.303	538.000	3514342208.353	1587.435	230.979	1818.414	0.127	-1.553	0.154	-3.391	1.051
539.000	1.717	539.000	3514342209.851	1270.907	633.737	1904.643	0.333	-1.553	0.154	-3.391	1.051
540.000	1.717	540.000	3514342211.353	1594.494	409.368	2003.863	0.204	-1.553	0.154	3.603	1.051
541.000	-2.249	541.000	3514342217.741	674.215	1074.185	1748.400	0.614	-1.553	0.154	3.603	1.051
544.000	-2.249	544.000	3514342217.816	0.000	0.000	0.000	NaN	-1.116	0.154	3.603	1.051
545.000	-3.142	545.000	3514342218.867	-23.665	-42.032	-65.697	0.640	-1.116	0.154	3.603	1.051
546.000	-3.142	546.000	3514342220.366	-5.816	1.776	-4.040	-0.440	-1.116	-1.130	3.603	1.051
547.000	-4.036	547.000	3514342221.853	1380.220	448.736	1828.956	0.245	-1.116	-1.130	3.603	1.051
548.000	-4.036	548.000	3514342223.354	1431.058	435.910	1866.967	0.233	-1.116	-1.130	0.113	1.051
549.000	-4.551	549.000	3514342224.854	864.291	1117.697	1981.988	0.564	-1.116	-1.130	0.113	1.051
560.000	-1.578	560.000	3514342241.353	1717.616	360.824	2078.440	0.174	-0.366	-0.104	-3.505	0.090
561.000	-1.746	561.000	3514342242.852	1687.246	215.784	1903.030	0.113	-0.366	-0.104	-3.505	0.090
562.000	-1.746	562.000	3514342244.352	1445.754	565.459	2011.213	0.281	-0.366	-1.669	-3.505	0.090
563.000	-3.283	563.000	3514342245.853	1870.796	184.014	2054.809	0.090	-0.366	-1.669	-3.505	0.090
564.000	-3.283	564.000	3514342247.353	1707.138	315.043	2022.181	0.156	-0.366	-1.669	-0.541	0.090
565.000	-2.978	565.000	3514342248.854	1689.022	593.185	2282.207	0.260	-0.366	-1.669	-0.541	0.090
566.000	-2.978	566.000	3514342250.354	1472.039	555.001	2027.040	0.274	-0.366	-1.669	-0.541	-1.640
567.000	-1.593	567.000	3514342251.855	1423.954	471.824	1895.778	0.249	-0.366	-1.669	-0.541	-1.640
568.000	-1.593	568.000	3514342253.353	1564.258	424.760	1989.018	0.214	1.476	-1.669	-0.541	-1.640
569.000	0.143	569.000	3514342254.854	1455.877	528.262	1984.139	0.266	1.476	-1.669	-0.541	-1.640
570.000	0.143	570.000	3514342256.353	1543.035	226.835	1769.869	0.128	1.476	0.583	-0.541	-1.640
571.000	0.850	571.000	3514342257.853	1466.089	386.774	1852.863	0.209	1.476	0.583	-0.541	-1.640
572.000	0.850	572.000	3514342259.353	1623.709	360.528	1984.238	0.182	1.476	0.583	0.122	-1.640
573.000	0.528	573.000	3514342260.853	1343.900	665.113	2009.013	0.331	1.476	0.583	0.122	-1.640
574.000	0.528	574.000	3514342262.353	1705.628	293.731	1999.359	0.147	1.476	0.583	0.122	-0.311
575.000	0.681	575.000	3514342263.853	1112.443	409.270	1521.713	0.269	1.476	0.583	0.122	-0.311
576.000	0.681	576.000	3514342265.354	1550.449	480.507	2030.956	0.237	-1.215	0.583	0.122	-0.311
577.000	-0.300	577.000	3514342266.854	1513.553	391.707	1905.260	0.206	-1.215	0.583	0.122	-0.311
578.000	-0.300	578.000	3514342268.354	1576.290	415.584	1991.875	0.209	-1.215	-0.238	0.122	-0.311
579.000	-0.368	579.000	3514342269.854	1526.340	248.640	1774.981	0.140	-1.215	-0.238	0.122	-0.311
580.000	-0.368	580.000	3514342271.354	1471.728	499.846	1971.574	0.254	-1.215	-0.238	-1.621	-0.311
581.000	1.019	581.000	3514342272.854	1738.750	473.600	2212.351	0.214	-1.215	-0.238	-1.621	-0.311
582.000	1.019	582.000	3514342274.354	1685.337	808.969	2494.306	0.324	-1.215	-0.238	-1.621	-0.285
583.000	1.142	583.000	3514342275.854	1561.816	553.619	2115.435	0.262	-1.215	-0.238	-1.621	-0.285
584.000	1.142	584.000	3514342277.354	1210.967	808.180	2019.146	0.400	0.027	-0.238	-1.621	-0.285
585.000	1.398	585.000	3514342278.854	1537.485	374.934	1912.418	0.196	0.027	-0.238	-1.621	-0.285
586.000	1.398	586.000	3514342280.354	1695.948	482.777	2178.725	0.222	0.027	0.998	-1.621	-0.285
587.000	2.607	587.000	3514342281.853	1537.618	580.851	2118.469	0.274	0.027	0.998	-1.621	-0.285
588.000	2.607	588.000	3514342283.354	1829.149	295.606	2124.754	0.139	0.027	0.998	0.970	-0.285
589.000	1.534	589.000	3514342284.854	1293.595	776.507	2070.103	0.375	0.027	0.998	0.970	-0.285
590.000	1.534	590.000	3514342286.354	1511.200	789.038	2300.238	0.343	0.027	0.998	0.970	1.219
591.000	0.021	591.000	3514342287.856	875.746	641.334	1517.080	0.423	0.027	0.998	0.970	1.219
592.000	0.021	592.000	3514342289.353	1609.501	334.086	1943.587	0.172	0.225	0.998	0.970	1.219
593.000	0.515	593.000	3514342290.854	1724.587	220.224	1944.811	0.113	0.225	0.998	0.970	1.219
594.000	0.515	594.000	3514342292.354	1402.109	468.864	1870.973	0.251	0.225	-1.189	0.970	1.219
595.000	-0.489	595.000	3514342293.854	1541.081	544.937	2086.018	0.261	0.225	-1.189	0.970	1.219
596.000	-0.489	596.000	3514342295.355	1683.516	398.515	2082.031	0.191	0.225	-1.189	-0.282	1.219
597.000	-0.418	597.000	3514342296.854	1665.179	520.566	2185.745	0.238	0.225	-1.189	-0.282	1.219
598.000	-0.418	598.000	3514342298.354	1566.877	543.950	2110.827	0.258	0.225	-1.189	-0.282	-2.207
599.000	1.695	599.000	3514342299.854	1459.030	469.358	1928.388	0.243	0.225	-1.189	-0.282	-2.207
600.000	1.695	600.000	3514342301.355	1228.283	647.254	1875.537	0.345	1.209	-1.189	-0.282	-2.207
601.000	3.228	601.000	3514342302.854	1362.415	532.406	1894.821	0.281	1.209	-1.189	-0.282	-2.207
602.000	3.228	602.000	3514342304.354	2004.262	189.835	2194.097	0.087	1.209	-0.614	-0.282	-2.207
603.000	2.708	603.000	3514342305.855	1777.600	514.547	2292.147	0.224	1.209	-0.614	-0.282	-2.207
604.000	2.708	604.000	3514342307.354	1897.969	452.288	2350.257	0.192	1.209	-0.614	0.172	-2.207
605.000	2.284	605.000	3514342308.854	1437.229	710.795	2148.025	0.331	1.209	-0.614	0.172	-2.207
606.000	2.284	606.000	3514342310.355	1496.947	648.931	2145.879	0.302	1.209	-0.614	0.172	0.895
607.000	1.216	607.000	3514342311.856	1206.882	841.430	2048.312	0.411	1.209	-0.614	0.172	0.895
608.000	1.216	608.000	3514342313.354	1647.641	447.848	2095.490	0.214	-1.711	-0.614	0.172	0.895
609.000	-0.303	609.000	3514342314.854	1897.303	343.755	2241.058	0.153	-1.711	-0.614	0.172	0.895
610.000	-0.303	610.000	3514342316.355	1616.117	580.950	2197.067	0.264	-1.711	-0.282	0.172	0.895
611.000	-0.514	611.000	3514342317.855	1916.261	190.723	2106.984	0.091	-1.711	-0.282	0.172	0.895
612.000	-0.514	612.000	3514342319.355	1498.901	589.238	2088.139	0.282	-1.711	-0.282	-0.251	0.895
613.000	-0.363	613.000	3514342320.855	1688.356	289.291	1977.647	0.146	-1.711	-0.282	-0.251	0.895
614.000	-0.363	614.000	3514342322.355	1322.589	536.747	1859.336	0.289	-1.711	-0.282	-0.251	-1.734
615.000	1.281	615.000	3514342323.855	1668.776	234.531	1903.307	0.123	-1.711	-0.282	-0.251	-1.734
616.000	1.281	616.000	3514342325.354	1146.631	779.073	1925.704	0.405	0.977	-0.282	-0.251	-1.734
617.000	2.508	617.000	3514342326.855	1213.720	410.256	1623.976	0.253	0.977	-0.282	-0.251	-1.734
618.000	2.508	618.000	3514342328.355	1826.618	248.344	2074.962	0.120	0.977	1.687	-0.251	-1.734
619.000	4.344	619.000	3514342329.854	1352.914	560.921	1913.834	0.293	0.977	1.687	-0.251	-1.734
620.000	4.344	620.000	3514342331.354	1670.418	183.027	1853.445	0.099	0.977	1.687	1.253	-1.734
621.000	2.891	621.000	3514342332.854	1178.022	723.523	1901.546	0.380	0.977	1.687	1.253	-1.734
622.000	2.891	622.000	3514342334.356	1858.408	231.078	2089.486	0.111	0.977	1.687	1.253	2.476
623.000	0.282	623.000	3514342335.857	959.929	841.035	1800.964	0.467	0.977	1.687	1.253	2.476
624.000	0.282	624.000	3514342337.355	1682.673	372.072	2054.745	0.181	-1.170	1.687	1.253	2.476
625.000	-0.733	625.000	3514342338.855	1484.915	344.051	1828.966	0.188	-1.170	1.687	1.253	2.476
626.000	-0.733	626.000	3514342340.355	1723.876	313.267	2037.143	0.154	-1.170	-1.710	1.253	2.476
627.000	-2.424	627.000	3514342341.855	1911.156	523.625	2434.780	0.215	-1.170	-1.710	1.253	2.476
628.000	-2.424	628.000	3514342343.355	1789.899	447.059	2236.958	0.200	-1.170	-1.710	-2.375	2.476
629.000	-0.014	629.000	3514342344.855	1724.542	298.862	2023.404	0.148	-1.170	-1.710	-2.375	2.476
630.000	-0.014	630.000	3514342346.355	1023.110	913.062	1936.172	0.472	-1.170	-1.710	-2.375	-2.516
631.000	2.445	631.000	3514342347.855	1710.334	236.998	1947.332	0.122	-1.170	-1.710	-2.375	-2.516
632.000	2.445	632.000	3514342349.355	1284.005	606.998	1891.003	0.321	-0.302	-1.710	-2.375	-2.516
633.000	2.296	633.000	3514342350.854	1568.831	308.038	1876.869	0.164	-0.302	-1.710	-2.375	-2.516
634.000	2.296	634.000	3514342352.354	1552.847	236.307	1789.154	0.132	-0.302	-0.134	-2.375	-2.516
635.000	2.188	635.000	3514342353.856	1664.114	379.176	2043.290	0.186	-0.302	-0.134	-2.375	-2.516
636.000	2.188	636.000	3514342355.355	1403.885	471.824	1875.710	0.252	-0.302	-0.134	2.850	-2.516
637.000	-0.840	637.000	3514342356.857	944.611	1040.342	1984.953	0.524	-0.302	-0.134	2.850	-2.516
638.000	-0.840	638.000	3514342358.357	1969.897	297.974	2267.870	0.131	-0.302	-0.134	2.850	1.754
639.000	-2.691	639.000	3514342359.857	1376.979	802.161	2179.139	0.368	-0.302	-0.134	2.850	1.754
640.000	-2.691	640.000	3514342361.356	1541.125	548.785	2089.910	0.263	-0.282	-0.134	2.850	1.754
641.000	-2.879	641.000	3514342362.855	1773.826	423.478	2197.304	0.193	-0.282	-0.134	2.850	1.754
642.000	-2.879	642.000	3514342364.355	1704.296	298.862	2003.157	0.149	-0.282	0.581	2.850	1.754
643.000	-2.294	643.000	3514342365.855	1775.558	309.912	2085.470	0.149	-0.282	0.581	2.850	1.754
644.000	-2.294	644.000	3514342367.356	2031.213	355.496	2386.709	0.149	-0.282	0.581	-3.456	1.754
645.000	1.292	645.000	3514342368.856	1675.835	323.627	1999.462	0.162	-0.282	0.581	-3.456	1.754
646.000	1.292	646.000	3514342370.356	1066.533	911.780	1978.313	0.461	-0.282	0.581	-3.456	-0.929
647.000	2.278	647.000	3514342371.856	1607.770	379.670	1987.439	0.191	-0.282	0.581	-3.456	-0.929
648.000	2.278	648.000	3514342373.355	1518.526	640.841	2159.367	0.297	-0.383	0.581	-3.456	-0.929
649.000	1.959	649.000	3514342374.856	1357.620	599.401	1957.021	0.306	-0.383	0.581	-3.456	-0.929
650.000	1.959	650.000	3514342376.355	1660.029	368.816	2028.845	0.182	-0.383	0.003	-3.456	-0.929
651.000	1.974	651.000	3514342377.855	1770.185	315.832	2086.018	0.151	-0.383	0.003	-3.456	-0.929
652.000	1.974	652.000	3514342379.357	1865.690	273.504	2139.194	0.128	-0.383	0.003	2.631	-0.929
653.000	-0.751	653.000	3514342380.857	1257.498	859.092	2116.590	0.406	-0.383	0.003	2.631	-0.929
654.000	-0.751	654.000	3514342382.357	1662.604	264.624	1927.228	0.137	-0.383	0.003	2.631	0.930
655.000	-1.787	655.000	3514342383.857	1030.880	436.995	1467.875	0.298	-0.383	0.003	2.631	0.930
656.000	-1.787	656.000	3514342385.355	1444.467	337.934	1782.400	0.190	-1.096	0.003	2.631	0.930
657.000	-2.911	657.000	3514342386.855	1613.808	84.163	1697.971	0.050	-1.096	0.003	2.631	0.930
658.000	-2.911	658.000	3514342388.356	1673.482	394.963	2068.445	0.191	-1.096	-0.207	2.631	0.930
659.000	-3.164	659.000	3514342389.856	1570.207	299.158	1869.365	0.160	-1.096	-0.207	2.631	0.930
660.000	-3.164	660.000	3514342391.356	1789.189	397.528	2186.717	0.182	-1.096	-0.207	-2.363	0.930
661.000	-0.786	661.000	3514342392.857	1920.835	289.784	2210.619	0.131	-1.096	-0.207	-2.363	0.930
662.000	-0.786	662.000	3514342394.356	1141.614	882.771	2024.385	0.436	-1.096	-0.207	-2.363	-0.951
663.000	0.207	663.000	3514342395.856	1597.913	443.507	2041.420	0.217	-1.096	-0.207	-2.363	-0.951
664.000	0.207	664.000	3514342397.356	1253.591	535.070	1788.661	0.299	1.244	-0.207	-2.363	-0.951
665.000	1.429	665.000	3514342398.856	1690.399	445.678	2136.076	0.209	1.244	-0.207	-2.363	-0.951
666.000	1.429	666.000	3514342400.356	1614.030	299.059	1913.089	0.156	1.244	0.191	-2.363	-0.951
667.000	1.628	667.000	3514342401.857	1522.478	413.019	1935.497	0.213	1.244	0.191	-2.363	-0.951
668.000	1.628	668.000	3514342403.357	1634.676	420.912	2055.589	0.205	1.244	0.191	2.684	-0.951
669.000	-1.159	669.000	3514342404.857	1087.757	584.009	1671.765	0.349	1.244	0.191	2.684	-0.951
670.000	-1.159	670.000	3514342406.358	1542.502	478.040	2020.542	0.237	1.244	0.191	2.684	0.721
671.000	-1.842	671.000	3514342407.857	1248.973	648.241	1897.214	0.342	1.244	0.191	2.684	0.721
672.000	-1.842	672.000	3514342409.357	1364.413	616.865	1981.278	0.311	-0.460	0.191	2.684	0.721
673.000	-2.335	673.000	3514342410.856	1906.094	216.475	2122.569	0.102	-0.460	0.191	2.684	0.721
674.000	-2.335	674.000	3514342412.356	1420.313	365.955	1786.268	0.205	-0.460	-0.076	2.684	0.721
675.000	-2.419	675.000	3514342413.856	1878.033	243.806	2121.839	0.115	-0.460	-0.076	2.684	0.721
676.000	-2.419	676.000	3514342415.356	1720.546	583.811	2304.357	0.253	-0.460	-0.076	-0.992	0.721
677.000	-1.549	677.000	3514342416.856	1430.303	414.894	1845.197	0.225	-0.460	-0.076	-0.992	0.721
678.000	-1.549	678.000	3514342418.357	1122.122	619.923	1742.046	0.356	-0.460	-0.076	-0.992	-0.267
679.000	-1.326	679.000	3514342419.856	1614.474	166.846	1781.320	0.094	-0.460	-0.076	-0.992	-0.267
680.000	-1.326	680.000	3514342421.356	1301.499	499.550	1801.048	0.277	0.905	-0.076	-0.992	-0.267
681.000	-0.386	681.000	3514342422.857	1613.054	206.411	1819.464	0.113	0.905	-0.076	-0.992	-0.267
682.000	-0.386	682.000	3514342424.358	1573.937	380.262	1954.199	0.195	0.905	1.218	-0.992	-0.267
683.000	0.900	683.000	3514342425.857	1688.711	472.219	2160.930	0.219	0.905	1.218	-0.992	-0.267
684.000	0.900	684.000	3514342427.357	1612.565	418.248	2030.813	0.206	0.905	1.218	1.153	-0.267
685.000	-0.264	685.000	3514342428.858	1163.104	744.046	1907.150	0.390	0.905	1.218	1.153	-0.267
686.000	-0.264	686.000	3514342430.357	1425.641	585.686	2011.327	0.291	0.905	1.218	1.153	1.617
687.000	-1.989	687.000	3514342431.857	1394.960	684.155	2079.116	0.329	0.905	1.218	1.153	1.617
688.000	-1.989	688.000	3514342433.356	1472.572	435.022	1907.594	0.228	0.714	1.218	1.153	1.617
689.000	-1.180	689.000	3514342434.856	1588.012	363.488	1951.500	0.186	0.714	1.218	1.153	1.617
690.000	-1.180	690.000	3514342436.357	1281.874	402.462	1684.335	0.239	0.714	-0.111	1.153	1.617
691.000	-1.288	691.000	3514342437.856	1421.823	400.488	1822.311	0.220	0.714	-0.111	1.153	1.617
692.000	-1.288	692.000	3514342439.357	1484.338	466.299	1950.637	0.239	0.714	-0.111	-0.871	1.617
693.000	-0.534	693.000	3514342440.857	1507.204	462.747	1969.951	0.235	0.714	-0.111	-0.871	1.617
694.000	-0.534	694.000	3514342442.358	1047.086	700.337	1747.423	0.401	0.714	-0.111	-0.871	-0.889
695.000	0.405	695.000	3514342443.859	1695.194	255.942	1951.135	0.131	0.714	-0.111	-0.871	-0.889
696.000	0.405	696.000	3514342445.357	1324.453	498.859	1823.312	0.274	0.464	-0.111	-0.871	-0.889
697.000	0.913	697.000	3514342446.857	1538.550	336.454	1875.004	0.179	0.464	-0.111	-0.871	-0.889
698.000	0.913	698.000	3514342448.357	1284.271	581.246	1865.517	0.312	0.464	0.170	-0.871	-0.889
699.000	1.079	699.000	3514342449.857	1740.748	268.374	2009.122	0.134	0.464	0.170	-0.871	-0.889
700.000	1.079	700.000	3514342451.358	1358.375	590.521	1948.896	0.303	0.464	0.170	1.460	-0.889
701.000	-0.388	701.000	3514342452.858	1335.020	712.769	2047.789	0.348	0.464	0.170	1.460	-0.889
702.000	-0.388	702.000	3514342454.358	1473.859	303.795	1777.654	0.171	0.464	0.170	1.460	1.253
703.000	-1.773	703.000	3514342455.858	1469.997	629.790	2099.787	0.300	0.464	0.170	1.460	1.253
704.000	-1.773	704.000	3514342457.357	1486.691	259.691	1746.382	0.149	1.163	0.170	1.460	1.253
705.000	-0.446	705.000	3514342458.858	1493.440	295.211	1788.651	0.165	1.163	0.170	1.460	1.253
706.000	-0.446	706.000	3514342460.357	1526.385	468.766	1995.150	0.235	1.163	1.491	1.460	1.253
707.000	1.160	707.000	3514342461.858	1483.006	427.030	1910.036	0.224	1.163	1.491	1.460	1.253
708.000	1.160	708.000	3514342463.358	1434.787	550.462	1985.249	0.277	1.163	1.491	-1.559	1.253
709.000	2.813	709.000	3514342464.858	1635.476	304.979	1940.455	0.157	1.163	1.491	-1.559	1.253
710.000	2.813	710.000	3514342466.358	1287.779	583.121	1870.899	0.312	1.163	1.491	-1.559	-1.331
711.000	4.135	711.000	3514342467.859	1705.006	158.459	1863.465	0.085	1.163	1.491	-1.559	-1.331
712.000	4.135	712.000	3514342469.356	899.456	905.662	1805.118	0.502	0.615	1.491	-1.559	-1.331
713.000	4.997	713.000	3514342470.858	1324.586	342.078	1666.664	0.205	0.615	1.491	-1.559	-1.331
714.000	4.997	714.000	3514342472.366	1583.572	217.067	1800.639	0.121	0.615	0.473	-1.559	-1.331
715.000	5.607	715.000	3514342473.857	1683.428	314.155	1997.583	0.157	0.615	0.473	-1.559	-1.331
716.000	5.607	716.000	3514342475.358	1577.667	309.616	1887.283	0.164	0.615	0.473	1.360	-1.331
717.000	4.123	717.000	3514342476.858	1173.227	877.838	2051.065	0.428	0.615	0.473	1.360	-1.331
718.000	4.123	718.000	3514342478.358	890.620	906.945	1797.565	0.505	0.615	0.473	1.360	3.667
719.000	0.282	719.000	3514342479.859	934.576	815.481	1750.057	0.466	0.615	0.473	1.360	3.667
720.000	0.282	720.000	3514342481.357	1733.289	116.328	1849.617	0.063	-0.745	0.473	1.360	3.667
721.000	-0.234	721.000	3514342482.857	1481.363	399.798	1881.161	0.213	-0.745	0.473	1.360	3.667
722.000	-0.234	722.000	3514342484.357	1239.427	413.414	1652.841	0.250	-0.745	0.060	1.360	3.667
723.000	0.044	723.000	3514342485.857	1220.823	784.499	2005.323	0.391	-0.745	0.060	1.360	3.667
724.000	0.044	724.000	3514342487.357	1526.474	363.488	1889.962	0.192	-0.745	0.060	0.674	3.667
725.000	-0.809	725.000	3514342488.858	1279.521	615.977	1895.497	0.325	-0.745	0.060	0.674	3.667
726.000	-0.809	726.000	3514342490.358	1386.436	537.438	1923.874	0.279	-0.745	0.060	0.674	-3.547
727.000	2.665	727.000	3514342491.858	1694.128	285.344	1979.472	0.144	-0.745	0.060	0.674	-3.547
728.000	2.665	728.000	3514342493.358	971.295	959.732	1931.027	0.497	0.331	0.060	0.674	-3.547
729.000	3.169	729.000	3514342494.859	1238.939	533.392	1772.331	0.301	0.331	0.060	0.674	-3.547
730.000	3.169	730.000	3514342496.358	1610.833	395.851	2006.685	0.197	0.331	-1.750	0.674	-3.547
731.000	1.525	731.000	3514342497.859	1776.534	385.984	2162.519	0.178	0.331	-1.750	0.674	-3.547
732.000	1.525	732.000	3514342499.358	1390.609	506.456	1897.066	0.267	0.331	-1.750	-0.401	-3.547
733.000	1.777	733.000	3514342500.858	1367.122	608.577	1975.698	0.308	0.331	-1.750	-0.401	-3.547
734.000	1.777	734.000	3514342502.358	912.732	1212.516	2125.248	0.571	0.331	-1.750	-0.401	3.105
735.000	-1.563	735.000	3514342503.858	1244.755	726.681	1971.436	0.369	0.331	-1.750	-0.401	3.105
736.000	-1.563	736.000	3514342505.357	1609.146	366.547	1975.693	0.186	-0.912	-1.750	-0.401	3.105
737.000	-2.292	737.000	3514342506.857	1442.158	323.035	1765.193	0.183	-0.912	-1.750	-0.401	3.105
738.000	-2.292	738.000	3514342508.357	1223.399	597.822	1821.221	0.328	-0.912	0.779	-0.401	3.105
739.000	-1.357	739.000	3514342509.858	1418.226	530.926	1949.152	0.272	-0.912	0.779	-0.401	3.105
740.000	-1.357	740.000	3514342511.358	1398.202	756.675	2154.877	0.351	-0.912	0.779	2.310	3.105
741.000	-4.011	741.000	3514342512.860	885.514	1040.441	1925.955	0.540	-0.912	0.779	2.310	3.105
742.000	-4.011	742.000	3514342514.359	1432.035	517.112	1949.147	0.265	-0.912	0.779	2.310	-1.611
743.000	-2.572	743.000	3514342515.860	1188.633	563.881	1752.514	0.322	-0.912	0.779	2.310	-1.611
744.000	-2.572	744.000	3514342517.359	1021.512	729.443	1750.955	0.417	1.278	0.779	2.310	-1.611
745.000	-1.050	745.000	3514342518.858	1290.709	536.747	1827.456	0.294	1.278	0.779	2.310	-1.611
746.000	-1.050	746.000	3514342520.359	1721.967	399.798	2121.765	0.188	1.278	0.693	2.310	-1.611
747.000	-0.217	747.000	3514342521.858	1449.706	490.472	1940.178	0.253	1.278	0.693	2.310	-1.611
748.000	-0.217	748.000	3514342523.359	1505.384	286.726	1792.109	0.160	1.278	0.693	-2.419	-1.611
749.000	2.022	749.000	3514342524.859	1495.260	552.534	2047.794	0.270	1.278	0.693	-2.419	-1.611
750.000	2.022	750.000	3514342526.359	1194.494	597.822	1792.316	0.334	1.278	0.693	-2.419	0.835
751.000	1.034	751.000	3514342527.860	1224.820	666.691	1891.511	0.352	1.278	0.693	-2.419	0.835
752.000	1.034	752.000	3514342529.358	1614.874	320.272	1935.146	0.166	-0.927	0.693	-2.419	0.835
753.000	0.294	753.000	3514342530.858	1693.329	480.014	2173.343	0.221	-0.927	0.693	-2.419	0.835
754.000	0.294	754.000	3514342532.359	1721.923	338.920	2060.843	0.164	-0.927	-0.817	-2.419	0.835
755.000	-0.367	755.000	3514342533.871	1573.759	613.411	2187.171	0.280	-0.927	-0.817	-2.419	0.835
756.000	-0.367	756.000	3514342535.359	1496.370	497.971	1994.341	0.250	-0.927	-0.817	0.561	0.835
757.000	-1.154	757.000	3514342536.860	945.898	983.116	1929.014	0.510	-0.927	-0.817	0.561	0.835
758.000	-1.154	758.000	3514342538.359	1768.320	377.894	2146.214	0.176	-0.927	-0.817	0.561	-1.645
759.000	0.316	759.000	3514342539.860	1350.738	466.694	1817.432	0.257	-0.927	-0.817	0.561	-1.645
760.000	0.316	760.000	3514342541.359	1440.870	313.958	1754.828	0.179	-0.496	-0.817	0.561	-1.645
761.000	-0.082	761.000	3514342542.858	1266.955	496.689	1763.644	0.282	-0.496	-0.817	0.561	-1.645
762.000	-0.082	762.000	3514342544.359	1694.305	283.371	1977.676	0.143	-0.496	-0.271	0.561	-1.645
763.000	-0.182	763.000	3514342545.860	1601.243	548.390	2149.633	0.255	-0.496	-0.271	0.561	-1.645
764.000	-0.182	764.000	3514342547.359	1687.291	488.006	2175.296	0.224	-0.496	-0.271	-2.935	-1.645
765.000	2.682	765.000	3514342548.860	1575.447	431.174	2006.620	0.215	-0.496	-0.271	-2.935	-1.645
766.000	2.682	766.000	3514342550.360	1158.042	829.097	1987.139	0.417	-0.496	-0.271	-2.935	-0.685
767.000	3.267	767.000	3514342551.860	1445.088	332.704	1777.792	0.187	-0.496	-0.271	-2.935	-0.685
768.000	3.267	768.000	3514342553.359	1247.552	447.158	1694.710	0.264	-1.217	-0.271	-2.935	-0.685
769.000	2.161	769.000	3514342554.858	1402.953	349.182	1752.134	0.199	-1.217	-0.271	-2.935	-0.685
770.000	2.161	770.000	3514342556.358	1482.073	159.248	1641.322	0.097	-1.217	-0.271	-2.935	-0.685
771.000	2.065	771.000	3514342557.860	1796.781	382.136	2178.917	0.175	-1.217	-0.271	-2.935	-0.685
772.000	2.065	772.000	3514342559.360	1647.197	349.872	1997.069	0.175	-1.217	-0.271	1.781	-0.685
773.000	0.121	773.000	3514342560.860	1146.942	570.195	1717.137	0.332	-1.217	-0.271	1.781	-0.685
774.000	0.121	774.000	3514342562.361	1463.825	332.014	1795.839	0.185	-1.217	-0.271	1.781	0.675
775.000	-0.771	775.000	3514342563.860	1051.215	640.051	1691.267	0.378	-1.217	-0.271	1.781	0.675
776.000	-0.771	776.000	3514342565.359	1391.675	514.251	1905.926	0.270	-0.900	-0.271	1.781	0.675
777.000	-1.657	777.000	3514342566.859	1476.790	293.830	1770.619	0.166	-0.900	-0.271	1.781	0.675
778.000	-1.657	778.000	3514342568.359	1281.962	434.923	1716.885	0.253	-0.900	-0.002	1.781	0.675
779.000	-1.563	779.000	3514342569.859	1499.434	317.904	1817.338	0.175	-0.900	-0.002	1.781	0.675
780.000	-1.563	780.000	3514342571.359	1506.360	339.611	1845.971	0.184	-0.900	-0.002	-1.295	0.675
781.000	-0.308	781.000	3514342572.859	1568.831	199.800	1768.631	0.113	-0.900	-0.002	-1.295	0.675
782.000	-0.308	782.000	3514342574.360	1183.661	820.907	2004.568	0.410	-0.900	-0.002	-1.295	-0.956
783.000	0.597	783.000	3514342575.860	1440.781	307.051	1747.832	0.176	-0.900	-0.002	-1.295	-0.956
784.000	0.597	784.000	3514342577.358	1177.711	761.313	1939.024	0.393	0.769	-0.002	-1.295	-0.956
785.000	1.464	785.000	3514342578.858	1721.878	284.654	2006.532	0.142	0.769	-0.002	-1.295	-0.956
786.000	1.464	786.000	3514342580.360	1462.226	494.715	1956.942	0.253	0.769	0.080	-1.295	-0.956
787.000	1.726	787.000	3514342581.860	1445.577	528.361	1973.937	0.268	0.769	0.080	-1.295	-0.956
788.000	1.726	788.000	3514342583.360	1514.352	660.475	2174.828	0.304	0.769	0.080	2.610	-0.956
789.000	-1.164	789.000	3514342584.860	967.655	890.665	1858.320	0.479	0.769	0.080	2.610	-0.956
790.000	-1.164	790.000	3514342586.360	1636.808	293.139	1929.947	0.152	0.769	0.080	2.610	1.909
791.000	-3.342	791.000	3514342587.860	882.717	997.225	1879.942	0.530	0.769	0.080	2.610	1.909
792.000	-3.342	792.000	3514342589.359	1677.878	249.331	1927.208	0.129	0.976	0.080	2.610	1.909
793.000	-2.206	793.000	3514342590.859	1473.327	655.345	2128.671	0.308	0.976	0.080	2.610	1.909
794.000	-2.206	794.000	3514342592.359	1721.967	199.011	1920.978	0.104	0.976	0.317	2.610	1.909
795.000	-1.676	795.000	3514342593.859	1301.410	566.446	1867.856	0.303	0.976	0.317	2.610	1.909
796.000	-1.676	796.000	3514342595.360	1759.263	226.736	1985.999	0.114	0.976	0.317	-2.881	1.909
797.000	1.195	797.000	3514342596.860	1873.904	383.222	2257.125	0.170	0.976	0.317	-2.881	1.909
798.000	1.195	798.000	3514342598.361	1332.135	646.169	1978.303	0.327	0.976	0.317	-2.881	-3.530
799.000	4.710	799.000	3514342599.861	1860.006	118.597	1978.604	0.060	0.976	0.317	-2.881	-3.530
800.000	4.710	800.000	3514342601.359	1048.729	1066.193	2114.922	0.504	-1.798	0.317	-2.881	-3.530
801.000	2.996	801.000	3514342602.860	1747.896	257.027	2004.923	0.128	-1.798	0.317	-2.881	-3.530
802.000	2.996	802.000	3514342604.360	1383.239	403.547	1786.786	0.226	-1.798	-1.664	-2.881	-3.530
803.000	1.443	803.000	3514342605.861	1459.607	228.019	1687.626	0.135	-1.798	-1.664	-2.881	-3.530
804.000	1.443	804.000	3514342607.360	1651.637	494.814	2146.451	0.231	-1.798	-1.664	1.380	-3.530
805.000	-0.181	805.000	3514342608.860	1228.905	688.299	1917.204	0.359	-1.798	-1.664	1.380	-3.530
806.000	-0.181	806.000	3514342610.361	1651.815	539.214	2191.029	0.246	-1.798	-1.664	1.380	3.909
807.000	-4.342	807.000	3514342611.861	944.833	745.625	1690.458	0.441	-1.798	-1.664	1.380	3.909
808.000	-4.342	808.000	3514342613.359	2001.554	202.760	2204.314	0.092	0.859	-1.664	1.380	3.909
809.000	-3.337	809.000	3514342614.860	1572.383	209.075	1781.458	0.117	0.859	-1.664	1.380	3.909
810.000	-3.337	810.000	3514342616.360	1955.023	44.992	2000.015	0.022	0.859	0.840	1.380	3.909
811.000	-2.340	811.000	3514342617.860	1491.220	646.070	2137.290	0.302	0.859	0.840	1.380	3.909
812.000	-2.340	812.000	3514342619.360	1830.081	282.976	2113.057	0.134	0.859	0.840	-0.994	3.909
813.000	-1.427	813.000	3514342620.860	1321.523	768.515	2090.038	0.368	0.859	0.840	-0.994	3.909
814.000	-1.427	814.000	3514342622.361	1332.490	810.745	2143.235	0.378	0.859	0.840	-0.994	-3.072
815.000	1.577	815.000	3514342623.861	1759.085	493.531	2252.616	0.219	0.859	0.840	-0.994	-3.072
824.000	-1.131	824.000	3514342637.360	1871.906	446.566	2318.472	0.193	0.635	-1.482	0.093	1.012
825.000	-0.260	825.000	3514342638.860	1471.284	520.467	1991.751	0.261	0.635	-1.482	0.093	1.012
826.000	-0.260	826.000	3514342640.360	1891.220	235.320	2126.540	0.111	0.635	0.836	0.093	1.012
827.000	0.716	827.000	3514342641.860	1787.901	307.544	2095.445	0.147	0.635	0.836	0.093	1.012
828.000	0.716	828.000	3514342643.370	2040.892	487.512	2528.405	0.193	0.635	0.836	0.841	1.012
829.000	-0.246	829.000	3514342644.861	1194.850	921.449	2116.299	0.435	0.635	0.836	0.841	1.012
830.000	-0.246	830.000	3514342646.361	1800.510	349.576	2150.087	0.163	0.635	0.836	0.841	-0.776
831.000	0.430	831.000	3514342647.861	1213.009	743.553	1956.562	0.380	0.635	0.836	0.841	-0.776
832.000	0.430	832.000	3514342649.361	1298.213	843.995	2142.208	0.394	-1.326	0.836	0.841	-0.776
833.000	-0.775	833.000	3514342650.862	1676.546	299.651	1976.197	0.152	-1.326	0.836	0.841	-0.776
834.000	-0.775	834.000	3514342652.362	1618.337	404.238	2022.575	0.200	-1.326	0.405	0.841	-0.776
835.000	-0.199	835.000	3514342653.862	1817.116	317.312	2134.429	0.149	-1.326	0.405	0.841	-0.776
836.000	-0.199	836.000	3514342655.362	1798.246	284.456	2082.703	0.137	-1.326	0.405	-2.401	-0.776
837.000	2.150	837.000	3514342656.862	1753.935	310.603	2064.538	0.150	-1.326	0.405	-2.401	-0.776
838.000	2.150	838.000	3514342658.361	1480.431	830.083	2310.514	0.359	-1.326	0.405	-2.401	0.123
839.000	1.901	839.000	3514342659.861	1811.522	379.670	2191.191	0.173	-1.326	0.405	-2.401	0.123
840.000	1.901	840.000	3514342661.361	1054.101	729.147	1783.249	0.409	0.424	0.405	-2.401	0.123
841.000	2.498	841.000	3514342662.861	1648.662	348.688	1997.351	0.175	0.424	0.405	-2.401	0.123
842.000	2.498	842.000	3514342664.361	1676.501	340.894	2017.395	0.169	0.424	-0.106	-2.401	0.123
843.000	2.506	843.000	3514342665.861	1551.870	785.782	2337.652	0.336	0.424	-0.106	-2.401	0.123
844.000	2.506	844.000	3514342667.362	1659.540	522.539	2182.080	0.239	0.424	-0.106	1.838	0.123
845.000	0.585	845.000	3514342668.863	1065.734	1146.113	2211.847	0.518	0.424	-0.106	1.838	0.123
846.000	0.585	846.000	3514342670.362	1720.901	515.830	2236.731	0.231	0.424	-0.106	1.838	2.073
847.000	-1.642	847.000	3514342671.862	1010.989	1126.182	2137.171	0.527	0.424	-0.106	1.838	2.073
848.000	-1.642	848.000	3514342673.361	1814.008	408.480	2222.489	0.184	-0.049	-0.106	1.838	2.073
849.000	-1.556	849.000	3514342674.862	1640.582	391.608	2032.190	0.193	-0.049	-0.106	1.838	2.073
850.000	-1.556	850.000	3514342676.362	1892.374	313.859	2206.233	0.142	-0.049	-0.851	1.838	2.073
851.000	-2.327	851.000	3514342677.862	1725.075	181.942	1907.016	0.095	-0.049	-0.851	1.838	2.073
852.000	-2.327	852.000	3514342679.361	1951.471	410.059	2361.530	0.174	-0.049	-0.851	-2.530	2.073
853.000	0.200	853.000	3514342680.861	2029.037	229.696	2258.734	0.102	-0.049	-0.851	-2.530	2.073
854.000	0.200	854.000	3514342682.371	892.974	1081.486	1974.460	0.548	-0.049	-0.851	-2.530	-3.020
855.000	3.171	855.000	3514342683.862	1307.803	606.998	1914.801	0.317	-0.049	-0.851	-2.530	-3.020
856.000	3.171	856.000	3514342685.361	1161.905	832.945	1994.850	0.418	-0.444	-0.851	-2.530	-3.020
857.000	2.809	857.000	3514342686.861	1790.565	500.438	2291.003	0.218	-0.444	-0.851	-2.530	-3.020
858.000	2.809	858.000	3514342688.361	1703.052	237.491	1940.543	0.122	-0.444	0.688	-2.530	-3.020
859.000	3.606	859.000	3514342689.862	1780.442	396.048	2176.490	0.182	-0.444	0.688	-2.530	-3.020
860.000	3.606	860.000	3514342691.362	1585.659	182.731	1768.390	0.103	-0.444	0.688	3.925	-3.020
861.000	-0.440	861.000	3514342692.862	1112.310	855.145	1967.455	0.435	-0.444	0.688	3.925	-3.020
862.000	-0.440	862.000	3514342694.363	1665.357	233.939	1899.296	0.123	-0.444	0.688	3.925	0.885
863.000	-1.360	863.000	3514342695.872	1377.733	745.230	2122.963	0.351	-0.444	0.688	3.925	0.885
864.000	-1.360	864.000	3514342697.361	1700.122	595.651	2295.773	0.259	-0.845	0.688	3.925	0.885
865.000	-2.190	865.000	3514342698.862	1829.815	239.070	2068.884	0.116	-0.845	0.688	3.925	0.885
866.000	-2.190	866.000	3514342700.361	1640.093	156.979	1797.072	0.087	-0.845	-0.692	3.925	0.885
867.000	-2.876	867.000	3514342701.861	1560.218	249.627	1809.844	0.138	-0.845	-0.692	3.925	0.885
868.000	-2.876	868.000	3514342703.362	1886.025	297.875	2183.900	0.136	-0.845	-0.692	-2.741	0.885
869.000	-0.203	869.000	3514342704.863	1288.045	398.416	1686.462	0.236	-0.845	-0.692	-2.741	0.885
870.000	-0.203	870.000	3514342706.362	1410.057	792.294	2202.351	0.360	-0.845	-0.692	-2.741	-0.806
871.000	0.546	871.000	3514342707.862	1376.623	473.502	1850.125	0.256	-0.845	-0.692	-2.741	-0.806
872.000	0.546	872.000	3514342709.361	1342.879	570.195	1913.074	0.298	-0.248	-0.692	-2.741	-0.806
873.000	0.242	873.000	3514342710.861	1841.181	285.147	2126.328	0.134	-0.248	-0.692	-2.741	-0.806
874.000	0.242	874.000	3514342712.361	1502.542	473.600	1976.142	0.240	-0.248	-0.013	-2.741	-0.806
875.000	0.205	875.000	3514342713.863	1938.994	464.030	2403.024	0.193	-0.248	-0.013	-2.741	-0.806
876.000	0.205	876.000	3514342715.362	1906.538	363.192	2269.730	0.160	-0.248	-0.013	1.087	-0.806
877.000	-0.944	877.000	3514342716.862	1328.716	740.987	2069.703	0.358	-0.248	-0.013	1.087	-0.806
878.000	-0.944	878.000	3514342718.362	1544.278	621.107	2165.385	0.287	-0.248	-0.013	1.087	0.371
879.000	-1.210	879.000	3514342719.863	1485.226	611.635	2096.861	0.292	-0.248	-0.013	1.087	0.371
880.000	-1.210	880.000	3514342721.363	1179.221	620.219	1799.440	0.345	0.929	-0.013	1.087	0.371
881.000	-0.332	881.000	3514342722.863	1408.680	219.534	1628.214	0.135	0.929	-0.013	1.087	0.371
882.000	-0.332	882.000	3514342724.363	1814.053	177.403	1991.456	0.089	0.929	-0.291	1.087	0.371
883.000	-0.673	883.000	3514342725.863	1578.510	295.211	1873.721	0.158	0.929	-0.291	1.087	0.371
884.000	-0.673	884.000	3514342727.363	1610.123	221.112	1831.235	0.121	0.929	-0.291	-0.626	0.371
885.000	-0.041	885.000	3514342728.862	1365.124	801.076	2166.199	0.370	0.929	-0.291	-0.626	0.371
886.000	-0.041	886.000	3514342730.363	1581.085	471.528	2052.614	0.230	0.929	-0.291	-0.626	0.466
887.000	-0.588	887.000	3514342731.863	998.202	748.486	1746.688	0.429	0.929	-0.291	-0.626	0.466
888.000	-0.588	888.000	3514342733.361	1528.205	272.518	1800.723	0.151	-0.403	-0.291	-0.626	0.466
889.000	-1.040	889.000	3514342734.861	1403.396	207.200	1610.597	0.129	-0.403	-0.291	-0.626	0.466
890.000	-1.040	890.000	3514342736.362	1592.496	197.630	1790.126	0.110	-0.403	-0.324	-0.626	0.466
891.000	-1.355	891.000	3514342737.864	1485.759	572.267	2058.026	0.278	-0.403	-0.324	-0.626	0.466
892.000	-1.355	892.000	3514342739.363	1693.595	290.278	1983.873	0.146	-0.403	-0.324	-1.233	0.466
893.000	-0.066	893.000	3514342740.873	1291.508	735.857	2027.365	0.363	-0.403	-0.324	-1.233	0.466
894.000	-0.066	894.000	3514342742.364	1493.662	357.667	1851.329	0.193	-0.403	-0.324	-1.233	-2.439
895.000	2.569	895.000	3514342743.863	1520.080	125.603	1645.683	0.076	-0.403	-0.324	-1.233	-2.439
896.000	2.569	896.000	3514342745.362	1076.568	298.171	1374.739	0.217	-0.161	-0.324	-1.233	-2.439
897.000	2.321	897.000	3514342746.863	1386.924	158.952	1545.876	0.103	-0.161	-0.324	-1.233	-2.439
898.000	2.321	898.000	3514342748.362	1683.472	215.686	1899.158	0.114	-0.161	-1.159	-1.233	-2.439
899.000	1.068	899.000	3514342749.863	1480.786	380.163	1860.949	0.204	-0.161	-1.159	-1.233	-2.439
900.000	1.068	900.000	3514342751.362	1545.388	403.054	1948.442	0.207	-0.161	-1.159	-1.494	-2.439
901.000	2.819	901.000	3514342752.862	1561.327	342.571	1903.898	0.180	-0.161	-1.159	-1.494	-2.439
902.000	2.819	902.000	3514342754.363	957.487	954.206	1911.693	0.499	-0.161	-1.159	-1.494	1.237
903.000	1.657	903.000	3514342755.874	1319.259	576.510	1895.769	0.304	-0.161	-1.159	-1.494	1.237
904.000	1.657	904.000	3514342757.371	1285.071	333.987	1619.058	0.206	0.095	-1.159	-1.494	1.237
905.000	1.701	905.000	3514342758.864	1509.912	624.067	2133.980	0.292	0.095	-1.159	-1.494	1.237
906.000	1.701	906.000	3514342760.363	1645.732	226.638	1872.370	0.121	0.095	0.023	-1.494	1.237
907.000	1.584	907.000	3514342761.873	1872.527	163.885	2036.413	0.080	0.095	0.023	-1.494	1.237
908.000	1.584	908.000	3514342763.364	1679.742	379.176	2058.919	0.184	0.095	0.023	2.809	1.237
909.000	-1.199	909.000	3514342764.863	1395.405	582.726	1978.130	0.295	0.095	0.023	2.809	1.237
910.000	-1.199	910.000	3514342766.364	1770.230	209.075	1979.305	0.106	0.095	0.023	2.809	-0.861
911.000	-0.166	911.000	3514342767.863	1700.610	374.835	2075.445	0.181	0.095	0.023	2.809	-0.861
912.000	-0.166	912.000	3514342769.363	1343.723	555.593	1899.316	0.293	-1.508	0.023	2.809	-0.861
913.000	-1.876	913.000	3514342770.863	1763.614	259.395	2023.009	0.128	-1.508	0.023	2.809	-0.861
914.000	-1.876	914.000	3514342772.364	1273.793	598.019	1871.812	0.319	-1.508	0.912	2.809	-0.861
915.000	-1.031	915.000	3514342773.864	1767.832	362.206	2130.038	0.170	-1.508	0.912	2.809	-0.861
916.000	-1.031	916.000	3514342775.364	1623.532	235.123	1858.655	0.127	-1.508	0.912	-1.663	-0.861
917.000	0.779	917.000	3514342776.864	1444.200	398.416	1842.617	0.216	-1.508	0.912	-1.663	-0.861
918.000	0.779	918.000	3514342778.364	1474.215	478.731	1952.946	0.245	-1.508	0.912	-1.663	0.985
919.000	-0.149	919.000	3514342779.864	1455.878	561.611	2017.489	0.278	-1.508	0.912	-1.663	0.985
920.000	-0.149	920.000	3514342781.372	936.441	783.217	1719.658	0.455	1.683	0.912	-1.663	0.985
921.000	1.441	921.000	3514342782.863	1426.484	360.528	1787.013	0.202	1.683	0.912	-1.663	0.985
922.000	1.441	922.000	3514342784.364	1270.641	307.248	1577.889	0.195	1.683	-0.383	-1.663	0.985
923.000	0.974	923.000	3514342785.864	1802.775	197.432	2000.207	0.099	1.683	-0.383	-1.663	0.985
924.000	0.974	924.000	3514342787.363	1448.818	627.225	2076.042	0.302	1.683	-0.383	0.254	0.985
925.000	0.726	925.000	3514342788.864	1876.568	278.043	2154.611	0.129	1.683	-0.383	0.254	0.985
926.000	0.726	926.000	3514342790.365	1095.438	804.529	1899.967	0.423	1.683	-0.383	0.254	1.558
927.000	-0.876	927.000	3514342791.865	1250.305	592.297	1842.602	0.321	1.683	-0.383	0.254	1.558
928.000	-0.876	928.000	3514342793.373	1373.071	312.280	1685.352	0.185	-0.062	-0.383	0.254	1.558
929.000	-1.023	929.000	3514342794.864	1551.426	203.550	1754.976	0.116	-0.062	-0.383	0.254	1.558
930.000	-1.023	930.000	3514342796.364	1599.156	171.976	1771.133	0.097	-0.062	1.790	0.254	1.558
931.000	0.774	931.000	3514342797.872	1547.297	438.870	1986.167	0.221	-0.062	1.790	0.254	1.558
932.000	0.774	932.000	3514342799.373	1721.878	175.430	1897.308	0.092	-0.062	1.790	2.591	1.558
933.000	-1.847	933.000	3514342800.873	1101.032	877.345	1978.377	0.443	-0.062	1.790	2.591	1.558
934.000	-1.847	934.000	3514342802.365	1671.706	303.400	1975.106	0.154	-0.062	1.790	2.591	-1.198
935.000	-0.597	935.000	3514342803.865	1467.377	397.824	1865.201	0.213	-0.062	1.790	2.591	-1.198
936.000	-0.597	936.000	3514342805.363	1145.477	503.497	1648.973	0.305	-0.166	1.790	2.591	-1.198
937.000	-0.805	937.000	3514342806.863	1629.171	303.400	1932.571	0.157	-0.166	1.790	2.591	-1.198
938.000	-0.805	938.000	3514342808.364	1411.921	545.825	1957.746	0.279	-0.166	-1.131	2.591	-1.198
939.000	-1.994	939.000	3514342809.864	1630.281	388.747	2019.028	0.193	-0.166	-1.131	2.591	-1.198
940.000	-1.994	940.000	3514342811.364	1387.590	651.891	2039.481	0.320	-0.166	-1.131	-2.551	-1.198
941.000	0.596	941.000	3514342812.865	1452.281	296.296	1748.577	0.169	-0.166	-1.131	-2.551	-1.198
942.000	0.596	942.000	3514342814.365	957.221	719.478	1676.698	0.429	-0.166	-1.131	-2.551	0.810
943.000	-0.236	943.000	3514342815.864	1392.252	462.550	1854.802	0.249	-0.166	-1.131	-2.551	0.810
944.000	-0.236	944.000	3514342817.364	1500.899	140.896	1641.795	0.086	1.072	-1.131	-2.551	0.810
945.000	0.885	945.000	3514342818.863	1358.553	389.635	1748.188	0.223	1.072	-1.131	-2.551	0.810
946.000	0.885	946.000	3514342820.364	1326.629	388.056	1714.685	0.226	1.072	1.118	-2.551	0.810
947.000	1.989	947.000	3514342821.873	1312.732	659.785	1972.516	0.334	1.072	1.118	-2.551	0.810
948.000	1.989	948.000	3514342823.365	1515.373	281.792	1797.166	0.157	1.072	1.118	2.285	0.810
949.000	-0.236	949.000	3514342824.865	863.758	945.820	1809.578	0.523	1.072	1.118	2.285	0.810
950.000	-0.236	950.000	3514342826.365	1523.366	347.899	1871.265	0.186	1.072	1.118	2.285	-1.439
951.000	1.349	951.000	3514342827.866	1435.453	200.195	1635.648	0.122	1.072	1.118	2.285	-1.439
952.000	1.349	952.000	3514342829.373	1288.134	445.184	1733.318	0.257	0.030	1.118	2.285	-1.439
953.000	1.394	953.000	3514342830.864	1243.867	407.395	1651.262	0.247	0.030	1.118	2.285	-1.439
954.000	1.394	954.000	3514342832.364	1255.367	281.891	1537.258	0.183	0.030	-1.564	2.285	-1.439
955.000	-0.288	955.000	3514342833.864	1592.141	247.259	1839.400	0.134	0.030	-1.564	2.285	-1.439
956.000	-0.288	956.000	3514342835.364	1323.165	417.558	1740.723	0.240	0.030	-1.564	-2.963	-1.439
957.000	2.756	957.000	3514342836.864	1555.911	-20.819	1535.092	-0.014	0.030	-1.564	-2.963	-1.439
958.000	2.756	958.000	3514342838.373	738.328	965.652	1703.980	0.567	0.030	-1.564	-2.963	1.183
959.000	1.505	959.000	3514342839.865	1102.719	544.147	1646.867	0.330	0.030	-1.564	-2.963	1.183
960.000	1.505	960.000	3514342841.364	1263.625	548.291	1811.917	0.303	-0.557	-1.564	-2.963	1.183
961.000	0.880	961.000	3514342842.865	1387.812	431.963	1819.775	0.237	-0.557	-1.564	-2.963	1.183
962.000	0.880	962.000	3514342844.365	1377.867	298.467	1676.334	0.178	-0.557	0.928	-2.963	1.183
963.000	1.803	963.000	3514342845.865	1428.616	394.667	1823.283	0.216	-0.557	0.928	-2.963	1.183
980.000	0.729	980.000	3514342871.366	1587.435	350.760	1938.195	0.181	-0.388	0.234	-0.976	-0.321
981.000	1.849	981.000	3514342872.873	1639.871	429.694	2069.565	0.208	-0.388	0.234	-0.976	-0.321
982.000	1.849	982.000	3514342874.366	957.043	869.747	1826.790	0.476	-0.388	0.234	-0.976	-0.539
983.000	2.488	983.000	3514342875.874	1095.749	538.128	1633.877	0.329	-0.388	0.234	-0.976	-0.539
984.000	2.488	984.000	3514342877.365	1164.436	363.390	1527.825	0.238	0.264	0.234	-0.976	-0.539
985.000	2.641	985.000	3514342878.865	1410.589	396.048	1806.638	0.219	0.264	0.234	-0.976	-0.539
986.000	2.641	986.000	3514342880.366	1617.271	319.582	1936.853	0.165	0.264	-1.079	-0.976	-0.539
987.000	1.466	987.000	3514342881.865	1476.035	390.918	1866.953	0.209	0.264	-1.079	-0.976	-0.539
988.000	1.466	988.000	3514342883.365	1719.170	457.419	2176.589	0.210	0.264	-1.079	2.363	-0.539
989.000	-0.812	989.000	3514342884.865	962.682	776.705	1739.386	0.447	0.264	-1.079	2.363	-0.539
990.000	-0.812	990.000	3514342886.373	1535.531	256.139	1791.670	0.143	0.264	-1.079	2.363	-0.805
991.000	0.108	991.000	3514342887.873	1572.960	293.830	1866.790	0.157	0.264	-1.079	2.363	-0.805
992.000	0.108	992.000	3514342889.373	1123.321	422.886	1546.207	0.273	-0.477	-1.079	2.363	-0.805
993.000	-0.455	993.000	3514342890.873	1407.925	294.027	1701.952	0.173	-0.477	-1.079	2.363	-0.805
994.000	-0.455	994.000	3514342892.373	1647.064	257.915	1904.979	0.135	-0.477	0.007	2.363	-0.805
995.000	-0.577	995.000	3514342893.873	1554.934	321.259	1876.193	0.171	-0.477	0.007	2.363	-0.805
996.000	-0.577	996.000	3514342895.373	1880.475	360.528	2241.003	0.161	-0.477	0.007	-2.671	-0.805
997.000	2.204	997.000	3514342896.867	1445.222	325.502	1770.723	0.184	-0.477	0.007	-2.671	-0.805
998.000	2.204	998.000	3514342898.367	1033.899	602.657	1636.556	0.368	-0.477	0.007	-2.671	1.022
999.000	1.263	999.000	3514342899.867	992.696	630.283	1622.979	0.388	-0.477	0.007	-2.671	1.022
1000.000	1.263	1000.000	3514342901.365	1179.443	457.419	1636.862	0.279	-0.329	0.007	-2.671	1.022
1001.000	0.799	1001.000	3514342902.865	1598.401	542.371	2140.773	0.253	-0.329	0.007	-2.671	1.022
1002.000	0.799	1002.000	3514342904.374	1274.814	563.683	1838.497	0.307	-0.329	-0.091	-2.671	1.022
1003.000	0.566	1003.000	3514342905.872	1467.333	274.096	1741.429	0.157	-0.329	-0.091	-2.671	1.022
1004.000	0.566	1004.000	3514342907.372	1459.918	500.832	1960.750	0.255	-0.329	-0.091	1.623	1.022
1005.000	-0.929	1005.000	3514342908.873	996.293	800.089	1796.381	0.445	-0.329	-0.091	1.623	1.022
1006.000	-0.929	1006.000	3514342910.373	1543.079	410.158	1953.237	0.210	-0.329	-0.091	1.623	-0.958
1007.000	0.272	1007.000	3514342911.874	1544.544	478.928	2023.473	0.237	-0.329	-0.091	1.623	-0.958
1008.000	0.272	1008.000	3514342913.373	1521.057	460.083	1981.140	0.232	0.469	-0.091	1.623	-0.958
1009.000	0.616	1009.000	3514342914.874	1379.909	458.800	1838.709	0.250	0.469	-0.091	1.623	-0.958
1010.000	0.616	1010.000	3514342916.367	1404.462	360.726	1765.188	0.204	0.469	0.863	1.623	-0.958
1011.000	1.410	1011.000	3514342917.874	1462.182	522.243	1984.425	0.263	0.469	0.863	1.623	-0.958
1012.000	1.410	1012.000	3514342919.374	2107.359	356.286	2463.645	0.145	0.469	0.863	-2.072	-0.958
1013.000	3.596	1013.000	3514342920.874	1753.624	369.112	2122.737	0.174	0.469	0.863	-2.072	-0.958
1014.000	3.596	1014.000	3514342922.374	907.093	879.220	1786.312	0.492	0.469	0.863	-2.072	-0.039
1015.000	3.749	1015.000	3514342923.873	1582.417	501.918	2084.335	0.241	0.469	0.863	-2.072	-0.039
1016.000	3.749	1016.000	3514342925.374	1160.173	767.924	1928.097	0.398	-0.397	0.863	-2.072	-0.039
1017.000	3.217	1017.000	3514342926.873	1548.940	531.321	2080.260	0.255	-0.397	0.863	-2.072	-0.039
1018.000	3.217	1018.000	3514342928.373	1385.992	453.472	1839.464	0.247	-0.397	-1.043	-2.072	-0.039
1019.000	2.010	1019.000	3514342929.874	1672.417	335.566	2007.982	0.167	-0.397	-1.043	-2.072	-0.039
1020.000	2.010	1020.000	3514342931.373	1671.484	531.715	2203.199	0.241	-0.397	-1.043	2.801	-0.039
1021.000	-0.614	1021.000	3514342932.874	1217.582	790.419	2008.002	0.394	-0.397	-1.043	2.801	-0.039
1022.000	-0.614	1022.000	3514342934.375	1524.742	529.841	2054.583	0.258	-0.397	-1.043	2.801	1.386
1023.000	-1.903	1023.000	3514342935.875	1124.831	671.033	1795.863	0.374	-0.397	-1.043	2.801	1.386
1024.000	-1.903	1024.000	3514342937.373	1842.735	310.899	2153.634	0.144	-0.078	-1.043	2.801	1.386
1025.000	-2.088	1025.000	3514342938.873	1483.450	629.889	2113.338	0.298	-0.078	-1.043	2.801	1.386
1026.000	-2.088	1026.000	3514342940.374	1580.642	561.217	2141.858	0.262	-0.078	0.653	2.801	1.386
1027.000	-1.545	1027.000	3514342941.873	1668.554	443.704	2112.258	0.210	-0.078	0.653	2.801	1.386
1028.000	-1.545	1028.000	3514342943.373	1517.594	567.729	2085.322	0.272	-0.078	0.653	-1.195	1.386
1029.000	-0.236	1029.000	3514342944.872	1517.593	342.670	1860.263	0.184	-0.078	0.653	-1.195	1.386
1030.000	-0.236	1030.000	3514342946.374	1262.693	750.854	2013.547	0.373	-0.078	0.653	-1.195	-2.018
1031.000	1.946	1031.000	3514342947.875	1748.074	108.533	1856.607	0.058	-0.078	0.653	-1.195	-2.018
1032.000	1.946	1032.000	3514342949.375	945.854	864.025	1809.879	0.477	-0.317	0.653	-1.195	-2.018
1033.000	1.512	1033.000	3514342950.873	1773.782	185.099	1958.881	0.094	-0.317	0.653	-1.195	-2.018
1034.000	1.512	1034.000	3514342952.373	1324.586	495.209	1819.795	0.272	-0.317	0.547	-1.195	-2.018
1035.000	1.972	1035.000	3514342953.873	1762.682	287.219	2049.901	0.140	-0.317	0.547	-1.195	-2.018
1036.000	1.972	1036.000	3514342955.374	1543.390	148.888	1692.278	0.088	-0.317	0.547	1.661	-2.018
1037.000	0.407	1037.000	3514342956.875	1313.309	681.195	1994.504	0.342	-0.317	0.547	1.661	-2.018
1038.000	0.407	1038.000	3514342958.374	1216.161	682.182	1898.344	0.359	-0.317	0.547	1.661	3.687
1039.000	-3.270	1039.000	3514342959.875	1203.907	600.486	1804.393	0.333	-0.317	0.547	1.661	3.687
1040.000	-3.270	1040.000	3514342961.373	1427.506	319.088	1746.594	0.183	1.563	0.547	1.661	3.687
1041.000	-1.796	1041.000	3514342962.873	1536.330	530.038	2066.368	0.257	1.563	0.547	1.661	3.687
1042.000	-1.796	1042.000	3514342964.373	1641.958	515.336	2157.294	0.239	1.563	-0.459	1.661	3.687
1043.000	-2.353	1043.000	3514342965.874	1865.601	144.744	2010.345	0.072	1.563	-0.459	1.661	3.687
1044.000	-2.353	1044.000	3514342967.374	1638.317	242.720	1881.038	0.129	1.563	-0.459	0.157	3.687
1045.000	-2.446	1045.000	3514342968.874	1504.984	790.617	2295.601	0.344	1.563	-0.459	0.157	3.687
1046.000	-2.446	1046.000	3514342970.375	1581.707	709.710	2291.417	0.310	1.563	-0.459	0.157	-1.321
1047.000	-1.032	1047.000	3514342971.875	1402.953	715.827	2118.780	0.338	1.563	-0.459	0.157	-1.321
1048.000	-1.032	1048.000	3514342973.374	1317.438	433.640	1751.078	0.248	-0.155	-0.459	0.157	-1.321
1049.000	-1.264	1049.000	3514342974.874	1653.324	262.256	1915.581	0.137	-0.155	-0.459	0.157	-1.321
1050.000	-1.264	1050.000	3514342976.374	1544.544	298.960	1843.504	0.162	-0.155	0.502	0.157	-1.321
1051.000	-0.823	1051.000	3514342977.874	1787.723	220.520	2008.244	0.110	-0.155	0.502	0.157	-1.321
1052.000	-0.823	1052.000	3514342979.374	1573.360	410.947	1984.307	0.207	-0.155	0.502	-0.305	-1.321
1053.000	-0.497	1053.000	3514342980.874	1544.100	216.080	1760.180	0.123	-0.155	0.502	-0.305	-1.321
1054.000	-0.497	1054.000	3514342982.375	1497.436	224.960	1722.396	0.131	-0.155	0.502	-0.305	-0.794
1055.000	0.317	1055.000	3514342983.875	1730.936	272.715	2003.651	0.136	-0.155	0.502	-0.305	-0.794
1056.000	0.317	1056.000	3514342985.374	1388.523	643.899	2032.422	0.317	0.222	0.502	-0.305	-0.794
1057.000	0.479	1057.000	3514342986.874	1604.884	400.094	2004.978	0.200	0.222	0.502	-0.305	-0.794
1058.000	0.479	1058.000	3514342988.375	1405.039	345.728	1750.767	0.197	0.222	0.856	-0.305	-0.794
1059.000	1.373	1059.000	3514342989.875	1456.854	724.510	2181.365	0.332	0.222	0.856	-0.305	-0.794
1060.000	1.373	1060.000	3514342991.374	1719.613	525.203	2244.817	0.234	0.222	0.856	0.069	-0.794
1061.000	1.244	1061.000	3514342992.874	1568.565	414.302	1982.866	0.209	0.222	0.856	0.069	-0.794
1062.000	1.244	1062.000	3514342994.374	1253.724	671.131	1924.855	0.349	0.222	0.856	0.069	1.590
1063.000	-0.352	1063.000	3514342995.873	1472.306	606.406	2078.712	0.292	0.222	0.856	0.069	1.590
1064.000	-0.352	1064.000	3514342997.374	1318.992	548.390	1867.382	0.294	-0.018	0.856	0.069	1.590
1065.000	-0.435	1065.000	3514342998.873	1631.835	118.499	1750.333	0.068	-0.018	0.856	0.069	1.590
1066.000	-0.435	1066.000	3514343000.374	1496.725	556.481	2053.206	0.271	-0.018	-0.864	0.069	1.590
1067.000	-1.299	1067.000	3514343001.874	1920.524	197.728	2118.252	0.093	-0.018	-0.864	0.069	1.590
1068.000	-1.299	1068.000	3514343003.374	1463.336	447.848	1911.185	0.234	-0.018	-0.864	1.230	1.590
1069.000	-2.525	1069.000	3514343004.874	1524.964	570.195	2095.159	0.272	-0.018	-0.864	1.230	1.590
1070.000	-2.525	1070.000	3514343006.374	1704.917	444.790	2149.707	0.207	-0.018	-0.864	1.230	0.017
1071.000	-2.596	1071.000	3514343007.875	1126.873	575.425	1702.298	0.338	-0.018	-0.864	1.230	0.017
1072.000	-2.596	1072.000	3514343009.374	991.630	928.948	1920.578	0.484	1.789	-0.864	1.230	0.017
1073.000	-0.707	1073.000	3514343010.874	1259.052	471.824	1730.876	0.273	1.789	-0.864	1.230	0.017
1074.000	-0.707	1074.000	3514343012.374	1532.335	91.464	1623.799	0.056	1.789	1.241	1.230	0.017
1075.000	0.556	1075.000	3514343013.873	1527.939	437.784	1965.723	0.223	1.789	1.241	1.230	0.017
1076.000	0.556	1076.000	3514343015.375	1471.773	399.502	1871.274	0.213	1.789	1.241	-0.574	0.017
1077.000	1.078	1077.000	3514343016.875	1381.774	603.150	1984.923	0.304	1.789	1.241	-0.574	0.017
1078.000	1.078	1078.000	3514343018.375	1367.077	429.102	1796.179	0.239	1.789	1.241	-0.574	1.282
1079.000	-0.284	1079.000	3514343019.875	1028.438	718.393	1746.831	0.411	1.789	1.241	-0.574	1.282
1080.000	-0.284	1080.000	3514343021.375	1476.612	423.182	1899.794	0.223	-1.903	1.241	-0.574	1.282
1081.000	-2.251	1081.000	3514343022.875	1762.060	254.166	2016.226	0.126	-1.903	1.241	-0.574	1.282
1082.000	-2.251	1082.000	3514343024.375	1700.077	426.635	2126.712	0.201	-1.903	-0.081	-0.574	1.282
1083.000	-2.290	1083.000	3514343025.875	2016.828	145.336	2162.164	0.067	-1.903	-0.081	-0.574	1.282
1084.000	-2.290	1084.000	3514343027.374	1885.803	245.680	2131.483	0.115	-1.903	-0.081	-0.572	1.282
1085.000	-1.739	1085.000	3514343028.874	1841.536	296.592	2138.129	0.139	-1.903	-0.081	-0.572	1.282
1086.000	-1.739	1086.000	3514343030.375	1163.414	870.734	2034.149	0.428	-1.903	-0.081	-0.572	-1.659
1087.000	-0.006	1087.000	3514343031.874	1622.022	424.859	2046.882	0.208	-1.903	-0.081	-0.572	-1.659
1088.000	-0.006	1088.000	3514343033.374	1198.712	525.104	1723.817	0.305	0.656	-0.081	-0.572	-1.659
1089.000	0.623	1089.000	3514343034.875	1683.516	197.038	1880.554	0.105	0.656	-0.081	-0.572	-1.659
1098.000	-2.599	1098.000	3514343048.374	1485.226	353.030	1838.256	0.192	0.185	0.305	2.546	0.854
1099.000	-2.320	1099.000	3514343049.875	1206.394	555.395	1761.789	0.315	0.185	0.305	2.546	0.854
1100.000	-2.320	1100.000	3514343051.374	1654.035	335.664	1989.699	0.169	0.185	0.305	-3.600	0.854
1101.000	1.313	1101.000	3514343052.876	1964.791	360.627	2325.417	0.155	0.185	0.305	-3.600	0.854
1102.000	1.313	1102.000	3514343054.374	1616.783	605.814	2222.597	0.273	0.185	0.305	-3.600	-0.716
1103.000	2.079	1103.000	3514343055.876	1514.708	454.459	1969.167	0.231	0.185	0.305	-3.600	-0.716
1104.000	2.079	1104.000	3514343057.375	1117.638	570.886	1688.524	0.338	-0.496	0.305	-3.600	-0.716
1105.000	1.500	1105.000	3514343058.876	1535.398	337.144	1872.542	0.180	-0.496	0.305	-3.600	-0.716
1106.000	1.500	1106.000	3514343060.374	1547.919	235.419	1783.338	0.132	-0.496	-1.290	-3.600	-0.716
1107.000	0.176	1107.000	3514343061.874	1678.100	412.328	2090.428	0.197	-0.496	-1.290	-3.600	-0.716
1108.000	0.176	1108.000	3514343063.374	1431.458	152.045	1583.503	0.096	-0.496	-1.290	1.034	-0.716
1109.000	-0.763	1109.000	3514343064.874	1504.673	706.158	2210.831	0.319	-0.496	-1.290	1.034	-0.716
1110.000	-0.763	1110.000	3514343066.375	1669.397	405.718	2075.115	0.196	-0.496	-1.290	1.034	0.944
1111.000	-1.773	1111.000	3514343067.875	1486.114	781.539	2267.653	0.345	-0.496	-1.290	1.034	0.944
1112.000	-1.773	1112.000	3514343069.374	1750.339	195.459	1945.797	0.100	-0.423	-1.290	1.034	0.944
1113.000	-2.308	1113.000	3514343070.876	1436.297	356.779	1793.076	0.199	-0.423	-1.290	1.034	0.944
1114.000	-2.308	1114.000	3514343072.376	1685.559	407.099	2092.658	0.195	-0.423	-0.891	1.034	0.944
1115.000	-3.333	1115.000	3514343073.876	1964.435	318.990	2283.425	0.140	-0.423	-0.891	1.034	0.944
1116.000	-3.333	1116.000	3514343075.376	1618.426	315.142	1933.568	0.163	-0.423	-0.891	-1.090	0.944
1117.000	-2.240	1117.000	3514343076.875	1488.334	478.534	1966.868	0.243	-0.423	-0.891	-1.090	0.944
1118.000	-2.240	1118.000	3514343078.375	1292.308	593.283	1885.591	0.315	-0.423	-0.891	-1.090	-2.149
1119.000	-0.001	1119.000	3514343079.875	1556.710	361.120	1917.830	0.188	-0.423	-0.891	-1.090	-2.149
1120.000	-0.001	1120.000	3514343081.375	1431.369	301.822	1733.190	0.174	-0.039	-0.891	-1.090	-2.149
1121.000	-0.133	1121.000	3514343082.875	1571.451	19.931	1591.381	0.013	-0.039	-0.891	-1.090	-2.149
1122.000	-0.133	1122.000	3514343084.375	1636.674	282.286	1918.960	0.147	-0.039	0.205	-1.090	-2.149
1123.000	0.020	1123.000	3514343085.875	1738.661	226.638	1965.299	0.115	-0.039	0.205	-1.090	-2.149
1124.000	0.020	1124.000	3514343087.375	1721.922	335.862	2057.784	0.163	-0.039	0.205	0.628	-2.149
1125.000	-0.384	1125.000	3514343088.876	1683.383	476.166	2159.549	0.220	-0.039	0.205	0.628	-2.149
1126.000	-0.384	1126.000	3514343090.375	1565.723	232.262	1797.985	0.129	-0.039	0.205	0.628	-0.125
1127.000	-0.167	1127.000	3514343091.876	1586.413	311.392	1897.806	0.164	-0.039	0.205	0.628	-0.125
1136.000	0.137	1136.000	3514343105.376	1628.771	316.918	1945.689	0.163	-0.360	0.421	-0.804	0.840
1137.000	-0.309	1137.000	3514343106.876	1914.619	335.664	2250.283	0.149	-0.360	0.421	-0.804	0.840
1138.000	-0.309	1138.000	3514343108.375	1556.354	155.795	1712.149	0.091	-0.360	0.137	-0.804	0.840
1139.000	-0.225	1139.000	3514343109.876	1683.827	444.888	2128.716	0.209	-0.360	0.137	-0.804	0.840
1140.000	-0.225	1140.000	3514343111.376	1734.088	357.766	2091.854	0.171	-0.360	0.137	1.556	0.840
1141.000	-1.855	1141.000	3514343112.876	1257.143	856.625	2113.768	0.405	-0.360	0.137	1.556	0.840
1142.000	-1.855	1142.000	3514343114.376	2030.059	192.696	2222.755	0.087	-0.360	0.137	1.556	-0.917
1143.000	-0.886	1143.000	3514343115.875	1455.922	490.473	1946.394	0.252	-0.360	0.137	1.556	-0.917
1144.000	-0.886	1144.000	3514343117.375	1621.800	477.152	2098.953	0.227	-0.512	0.137	1.556	-0.917
1145.000	-1.494	1145.000	3514343118.876	1583.128	278.438	1861.565	0.150	-0.512	0.137	1.556	-0.917
1146.000	-1.494	1146.000	3514343120.375	1504.140	436.600	1940.741	0.225	-0.512	-0.334	1.556	-0.917
1147.000	-1.909	1147.000	3514343121.877	1643.645	285.443	1929.088	0.148	-0.512	-0.334	1.556	-0.917
1148.000	-1.909	1148.000	3514343123.376	1828.527	295.211	2123.738	0.139	-0.512	-0.334	-2.803	-0.917
1149.000	1.068	1149.000	3514343124.876	1702.431	449.230	2151.661	0.209	-0.512	-0.334	-2.803	-0.917
1150.000	1.068	1150.000	3514343126.376	901.854	1158.447	2060.300	0.562	-0.512	-0.334	-2.803	-0.217
1151.000	1.305	1151.000	3514343127.876	1598.002	466.496	2064.498	0.226	-0.512	-0.334	-2.803	-0.217
1152.000	1.305	1152.000	3514343129.376	1107.026	752.531	1859.558	0.405	0.663	-0.334	-2.803	-0.217
1153.000	1.892	1153.000	3514343130.874	1659.718	393.286	2053.004	0.192	0.663	-0.334	-2.803	-0.217
1154.000	1.892	1154.000	3514343132.376	1352.559	329.054	1681.612	0.196	0.663	-0.079	-2.803	-0.217
1155.000	1.778	1155.000	3514343133.876	1621.800	181.547	1803.347	0.101	0.663	-0.079	-2.803	-0.217
1156.000	1.778	1156.000	3514343135.374	1562.171	245.582	1807.753	0.136	0.663	-0.079	3.111	-0.217
1157.000	-1.444	1157.000	3514343136.875	1587.124	132.213	1719.337	0.077	0.663	-0.079	3.111	-0.217
1158.000	-1.444	1158.000	3514343138.375	1694.661	226.835	1921.496	0.118	0.663	-0.079	3.111	1.573
1159.000	-3.030	1159.000	3514343139.876	1431.102	603.643	2034.745	0.297	0.663	-0.079	3.111	1.573
1160.000	-3.030	1160.000	3514343141.375	1512.354	485.736	1998.091	0.243	0.036	-0.079	3.111	1.573
1161.000	-3.043	1161.000	3514343142.876	1697.369	77.453	1774.822	0.044	0.036	-0.079	3.111	1.573
1162.000	-3.043	1162.000	3514343144.375	1668.687	451.499	2120.186	0.213	0.036	0.310	3.111	1.573
1163.000	-2.750	1163.000	3514343145.876	1901.609	275.083	2176.692	0.126	0.036	0.310	3.111	1.573
1172.000	0.325	1172.000	3514343159.376	1413.875	557.467	1971.342	0.283	1.490	1.171	0.140	-0.471
1173.000	0.137	1173.000	3514343160.876	838.628	783.907	1622.535	0.483	1.490	1.171	0.140	-0.471
1174.000	0.137	1174.000	3514343162.376	1487.135	653.766	2140.901	0.305	1.490	1.171	0.140	2.096
1175.000	-2.122	1175.000	3514343163.876	1418.004	565.065	1983.069	0.285	1.490	1.171	0.140	2.096
1184.000	2.407	1184.000	3514343177.377	1745.366	241.931	1987.297	0.122	-0.656	1.097	-1.564	-1.848
1185.000	1.748	1185.000	3514343178.877	1816.983	97.680	1914.663	0.051	-0.656	1.097	-1.564	-1.848
1186.000	1.748	1186.000	3514343180.376	1721.301	332.014	2053.314	0.162	-0.656	-0.730	-1.564	-1.848
1187.000	1.114	1187.000	3514343181.875	1548.896	376.907	1925.803	0.196	-0.656	-0.730	-1.564	-1.848
1188.000	1.114	1188.000	3514343183.375	1847.530	356.286	2203.816	0.162	-0.656	-0.730	1.771	-1.848
1189.000	-0.697	1189.000	3514343184.875	988.123	1167.425	2155.548	0.542	-0.656	-0.730	1.771	-1.848
1190.000	-0.697	1190.000	3514343186.375	1448.418	362.008	1810.427	0.200	-0.656	-0.730	1.771	-0.409
1191.000	-0.388	1191.000	3514343187.876	1287.779	596.441	1884.220	0.317	-0.656	-0.730	1.771	-0.409
1192.000	-0.388	1192.000	3514343189.375	1443.490	517.705	1961.194	0.264	0.974	-0.730	1.771	-0.409
1193.000	0.657	1193.000	3514343190.876	1402.775	358.654	1761.429	0.204	0.974	-0.730	1.771	-0.409
1194.000	0.657	1194.000	3514343192.376	1523.454	192.006	1715.460	0.112	0.974	-0.300	1.771	-0.409
1195.000	0.418	1195.000	3514343193.876	1442.646	493.531	1936.177	0.255	0.974	-0.300	1.771	-0.409
1196.000	0.418	1196.000	3514343195.376	1912.088	408.086	2320.173	0.176	0.974	-0.300	-3.006	-0.409
1197.000	3.464	1197.000	3514343196.876	1597.203	202.464	1799.667	0.113	0.974	-0.300	-3.006	-0.409
1198.000	3.464	1198.000	3514343198.377	1180.242	753.025	1933.267	0.390	0.974	-0.300	-3.006	-0.463
1199.000	4.020	1199.000	3514343199.876	1640.582	186.579	1827.160	0.102	0.974	-0.300	-3.006	-0.463
1200.000	4.020	1200.000	3514343201.375	1286.580	370.790	1657.370	0.224	-0.807	-0.300	-3.006	-0.463
1201.000	3.258	1201.000	3514343202.876	1608.347	266.992	1875.339	0.142	-0.807	-0.300	-3.006	-0.463
1202.000	3.258	1202.000	3514343204.376	1607.459	458.998	2066.457	0.222	-0.807	-0.695	-3.006	-0.463
1203.000	2.570	1203.000	3514343205.877	1756.821	478.632	2235.453	0.214	-0.807	-0.695	-3.006	-0.463
1204.000	2.570	1204.000	3514343207.376	1716.950	429.694	2146.644	0.200	-0.807	-0.695	2.438	-0.463
1205.000	0.130	1205.000	3514343208.876	894.084	958.745	1852.829	0.517	-0.807	-0.695	2.438	-0.463
1206.000	0.130	1206.000	3514343210.377	1788.611	175.923	1964.534	0.090	-0.807	-0.695	2.438	1.070
1207.000	-0.963	1207.000	3514343211.876	1111.821	800.779	1912.601	0.419	-0.807	-0.695	2.438	1.070
1208.000	-0.963	1208.000	3514343213.376	1804.107	277.352	2081.459	0.133	0.702	-0.695	2.438	1.070
1209.000	-0.158	1209.000	3514343214.877	1389.766	339.907	1729.673	0.197	0.702	-0.695	2.438	1.070
1210.000	-0.158	1210.000	3514343216.375	1781.818	206.214	1988.032	0.104	0.702	-0.123	2.438	1.070
1211.000	-0.251	1211.000	3514343217.876	1465.290	471.331	1936.621	0.243	0.702	-0.123	2.438	1.070
1212.000	-0.251	1212.000	3514343219.376	1753.136	433.344	2186.480	0.198	0.702	-0.123	-3.766	1.070
1213.000	3.703	1213.000	3514343220.876	1828.749	201.083	2029.832	0.099	0.702	-0.123	-3.766	1.070
1214.000	3.703	1214.000	3514343222.376	783.394	933.388	1716.782	0.544	0.702	-0.123	-3.766	-2.512
1215.000	6.272	1215.000	3514343223.876	1473.771	364.672	1838.443	0.198	0.702	-0.123	-3.766	-2.512
1216.000	6.272	1216.000	3514343225.376	771.451	906.057	1677.508	0.540	-0.817	-0.123	-3.766	-2.512
1217.000	5.451	1217.000	3514343226.875	1658.075	284.456	1942.531	0.146	-0.817	-0.123	-3.766	-2.512
1218.000	5.451	1218.000	3514343228.376	1536.819	355.496	1892.315	0.188	-0.817	-0.398	-3.766	-2.512
1219.000	5.044	1219.000	3514343229.877	1519.636	322.542	1842.177	0.175	-0.817	-0.398	-3.766	-2.512
1220.000	5.044	1220.000	3514343231.376	1545.566	424.267	1969.833	0.215	-0.817	-0.398	3.913	-2.512
1221.000	1.115	1221.000	3514343232.877	1094.905	827.715	1922.620	0.431	-0.817	-0.398	3.913	-2.512
1222.000	1.115	1222.000	3514343234.377	1555.467	421.110	1976.576	0.213	-0.817	-0.398	3.913	3.008
1223.000	-1.904	1223.000	3514343235.877	960.195	816.369	1776.564	0.460	-0.817	-0.398	3.913	3.008
1224.000	-1.904	1224.000	3514343237.376	1593.651	315.438	1909.089	0.165	0.365	-0.398	3.913	3.008
1225.000	-1.514	1225.000	3514343238.876	1734.132	102.416	1836.548	0.056	0.365	-0.398	3.913	3.008
1226.000	-1.514	1226.000	3514343240.377	1724.542	222.494	1947.036	0.114	0.365	0.355	3.913	3.008
1227.000	-1.191	1227.000	3514343241.876	1511.600	538.129	2049.728	0.263	0.365	0.355	3.913	3.008
1228.000	-1.191	1228.000	3514343243.377	1863.026	296.296	2159.322	0.137	0.365	0.355	-1.914	3.008
1229.000	0.804	1229.000	3514343244.878	1463.825	527.571	1991.396	0.265	0.365	0.355	-1.914	3.008
1230.000	0.804	1230.000	3514343246.378	1360.817	447.651	1808.468	0.248	0.365	0.355	-1.914	-2.590
1231.000	3.512	1231.000	3514343247.878	1265.579	622.193	1887.771	0.330	0.365	0.355	-1.914	-2.590
1240.000	3.027	1240.000	3514343261.376	1320.724	691.161	2011.884	0.344	0.781	-1.103	-0.153	-0.131
1241.000	3.866	1241.000	3514343262.877	1345.188	607.787	1952.975	0.311	0.781	-1.103	-0.153	-0.131
1242.000	3.866	1242.000	3514343264.377	1879.232	189.835	2069.066	0.092	0.781	-0.471	-0.153	-0.131
1243.000	3.260	1243.000	3514343265.877	1795.360	413.118	2208.478	0.187	0.781	-0.471	-0.153	-0.131
1244.000	3.260	1244.000	3514343267.378	1790.387	260.875	2051.262	0.127	0.781	-0.471	1.559	-0.131
1245.000	1.759	1245.000	3514343268.878	1249.062	605.321	1854.383	0.326	0.781	-0.471	1.559	-0.131
1246.000	1.759	1246.000	3514343270.378	1702.031	333.395	2035.426	0.164	0.781	-0.471	1.559	1.214
1247.000	0.613	1247.000	3514343271.877	1093.573	765.555	1859.128	0.412	0.781	-0.471	1.559	1.214
1248.000	0.613	1248.000	3514343273.377	1319.880	571.872	1891.752	0.302	-1.931	-0.471	1.559	1.214
1249.000	-1.349	1249.000	3514343274.877	1376.579	454.755	1831.334	0.248	-1.931	-0.471	1.559	1.214
1250.000	-1.349	1250.000	3514343276.377	1857.787	111.987	1969.774	0.057	-1.931	-0.527	1.559	1.214
1251.000	-2.042	1251.000	3514343277.877	1627.572	263.342	1890.914	0.139	-1.931	-0.527	1.559	1.214
1252.000	-2.042	1252.000	3514343279.378	1528.161	511.784	2039.945	0.251	-1.931	-0.527	-1.431	1.214
1253.000	-0.504	1253.000	3514343280.878	1240.937	641.729	1882.666	0.341	-1.931	-0.527	-1.431	1.214
1254.000	-0.504	1254.000	3514343282.378	1470.085	363.587	1833.672	0.198	-1.931	-0.527	-1.431	-0.963
1255.000	0.618	1255.000	3514343283.878	1552.137	351.056	1903.193	0.184	-1.931	-0.527	-1.431	-0.963
1256.000	0.618	1256.000	3514343285.377	1260.251	755.195	2015.446	0.375	-1.685	-0.527	-1.431	-0.963
1257.000	-1.270	1257.000	3514343286.878	1553.602	338.427	1892.029	0.179	-1.685	-0.527	-1.431	-0.963
1258.000	-1.270	1258.000	3514343288.377	1335.553	445.875	1781.428	0.250	-1.685	0.982	-1.431	-0.963
1259.000	-0.429	1259.000	3514343289.877	7.015	127.181	134.197	0.948	-1.685	0.982	-1.431	-0.963
1260.000	-0.429	1260.000	3514343291.378	33.078	175.133	208.212	0.841	-1.685	0.982	-1.255	-0.963
1261.000	1.128	1261.000	3514343292.877	23.621	77.059	100.680	0.765	-1.685	0.982	-1.255	-0.963
1262.000	1.128	1262.000	3514343294.377	-57.454	0.099	-57.355	-0.002	-1.685	0.982	-1.255	1.674
1263.000	-0.497	1263.000	3514343295.877	14.075	-25.061	-10.987	2.281	-1.685	0.982	-1.255	1.674
1264.000	-0.497	1264.000	3514343297.378	1903.341	320.470	2223.811	0.144	0.629	0.982	-1.255	1.674
1265.000	0.039	1265.000	3514343298.878	1678.188	434.923	2113.112	0.206	0.629	0.982	-1.255	1.674
1278.000	-2.086	1278.000	3514343318.378	1733.333	538.918	2272.251	0.237	-1.459	-0.365	0.334	0.018
1279.000	-2.010	1279.000	3514343319.878	861.849	974.630	1836.479	0.531	-1.459	-0.365	0.334	0.018
1280.000	-2.010	1280.000	3514343321.378	1940.682	205.819	2146.500	0.096	0.792	-0.365	0.334	0.018
1281.000	-1.395	1281.000	3514343322.877	1553.158	491.459	2044.617	0.240	0.792	-0.365	0.334	0.018
1282.000	-1.395	1282.000	3514343324.377	1643.024	194.867	1837.890	0.106	0.792	-2.006	0.334	0.018
1283.000	-3.562	1283.000	3514343325.877	1575.846	699.547	2275.394	0.307	0.792	-2.006	0.334	0.018
1284.000	-3.562	1284.000	3514343327.377	1783.683	344.150	2127.833	0.162	0.792	-2.006	-1.812	0.018
1285.000	-1.480	1285.000	3514343328.877	1618.692	332.014	1950.706	0.170	0.792	-2.006	-1.812	0.018
1286.000	-1.480	1286.000	3514343330.377	1162.482	749.867	1912.349	0.392	0.792	-2.006	-1.812	-3.826
1287.000	2.533	1287.000	3514343331.878	1693.329	450.019	2143.348	0.210	0.792	-2.006	-1.812	-3.826
1288.000	2.533	1288.000	3514343333.378	1652.880	483.862	2136.742	0.226	-1.182	-2.006	-1.812	-3.826
1289.000	1.131	1289.000	3514343334.878	1729.382	288.206	2017.587	0.143	-1.182	-2.006	-1.812	-3.826
1290.000	1.131	1290.000	3514343336.378	1629.304	440.350	2069.654	0.213	-1.182	-1.282	-1.812	-3.826
1291.000	-0.387	1291.000	3514343337.878	1645.999	300.934	1946.932	0.155	-1.182	-1.282	-1.812	-3.826
1292.000	-0.387	1292.000	3514343339.378	1623.177	498.465	2121.641	0.235	-1.182	-1.282	1.953	-3.826
1293.000	-2.215	1293.000	3514343340.877	1362.415	563.486	1925.901	0.293	-1.182	-1.282	1.953	-3.826
1294.000	-2.215	1294.000	3514343342.377	1795.893	729.838	2525.731	0.289	-1.182	-1.282	1.953	0.145
1295.000	-2.182	1295.000	3514343343.877	1543.434	357.667	1901.101	0.188	-1.182	-1.282	1.953	0.145
1296.000	-2.182	1296.000	3514343345.377	1040.915	743.849	1784.763	0.417	0.615	-1.282	1.953	0.145
1297.000	-1.741	1297.000	3514343346.877	1351.759	535.563	1887.323	0.284	0.615	-1.282	1.953	0.145
1298.000	-1.741	1298.000	3514343348.377	1684.094	421.603	2105.697	0.200	0.615	0.707	1.953	0.145
1299.000	-1.265	1299.000	3514343349.878	1828.172	229.992	2058.164	0.112	0.615	0.707	1.953	0.145
1300.000	-1.265	1300.000	3514343351.378	1462.449	769.107	2231.556	0.345	0.615	0.707	-0.032	0.145
1301.000	-1.068	1301.000	3514343352.878	1247.819	591.014	1838.833	0.321	0.615	0.707	-0.032	0.145
1302.000	-1.068	1302.000	3514343354.379	1519.991	427.030	1947.021	0.219	0.615	0.707	-0.032	2.012
1303.000	-2.957	1303.000	3514343355.879	1354.779	693.134	2047.913	0.338	0.615	0.707	-0.032	2.012
1304.000	-2.957	1304.000	3514343357.378	1756.555	533.195	2289.750	0.233	-0.735	0.707	-0.032	2.012
1305.000	-3.905	1305.000	3514343358.877	1859.429	62.456	1921.885	0.032	-0.735	0.707	-0.032	2.012
1306.000	-3.905	1306.000	3514343360.377	1601.421	575.819	2177.240	0.264	-0.735	2.050	-0.032	2.012
1307.000	-1.999	1307.000	3514343361.878	1357.132	523.131	1880.263	0.278	-0.735	2.050	-0.032	2.012
1308.000	-1.999	1308.000	3514343363.378	1684.760	485.539	2170.299	0.224	-0.735	2.050	-0.898	2.012
1309.000	-0.934	1309.000	3514343364.878	1838.473	200.195	2038.667	0.098	-0.735	2.050	-0.898	2.012
1310.000	-0.934	1310.000	3514343366.377	1347.009	499.451	1846.460	0.270	-0.735	2.050	-0.898	-0.929
1311.000	0.125	1311.000	3514343367.879	1681.208	225.750	1906.957	0.118	-0.735	2.050	-0.898	-0.929
1312.000	0.125	1312.000	3514343369.378	1406.993	644.195	2051.188	0.314	2.041	2.050	-0.898	-0.929
1313.000	2.067	1313.000	3514343370.879	1531.047	566.939	2097.986	0.270	2.041	2.050	-0.898	-0.929
1314.000	2.067	1314.000	3514343372.378	2029.215	266.203	2295.418	0.116	2.041	-0.480	-0.898	-0.929
1315.000	1.432	1315.000	3514343373.878	1614.741	440.448	2055.189	0.214	2.041	-0.480	-0.898	-0.929
1316.000	1.432	1316.000	3514343375.378	1674.947	351.747	2026.694	0.174	2.041	-0.480	1.516	-0.929
1317.000	0.090	1317.000	3514343376.878	1358.730	548.883	1907.613	0.288	2.041	-0.480	1.516	-0.929
1318.000	0.090	1318.000	3514343378.378	1549.206	296.198	1845.404	0.161	2.041	-0.480	1.516	1.722
1319.000	-1.596	1319.000	3514343379.878	955.933	1241.524	2197.457	0.565	2.041	-0.480	1.516	1.722
1320.000	-1.596	1320.000	3514343381.377	1791.320	422.787	2214.107	0.191	-1.357	-0.480	1.516	1.722
1321.000	-3.095	1321.000	3514343382.877	1617.627	350.563	1968.190	0.178	-1.357	-0.480	1.516	1.722
1322.000	-3.095	1322.000	3514343384.378	1585.925	444.691	2030.616	0.219	-1.357	-0.359	1.516	1.722
1323.000	-3.626	1323.000	3514343385.879	1742.347	382.531	2124.878	0.180	-1.357	-0.359	1.516	1.722
1324.000	-3.626	1324.000	3514343387.379	2278.699	312.971	2591.670	0.121	-1.357	-0.359	-1.120	1.722
1325.000	-2.404	1325.000	3514343388.878	1821.689	200.886	2022.575	0.099	-1.357	-0.359	-1.120	1.722
1326.000	-2.404	1326.000	3514343390.378	1602.620	529.742	2132.362	0.248	-1.357	-0.359	-1.120	-3.291
1327.000	1.167	1327.000	3514343391.878	1498.546	605.222	2103.768	0.288	-1.357	-0.359	-1.120	-3.291
1328.000	1.167	1328.000	3514343393.378	1148.718	1020.510	2169.228	0.470	0.360	-0.359	-1.120	-3.291
1329.000	1.368	1329.000	3514343394.878	1635.209	455.446	2090.655	0.218	0.360	-0.359	-1.120	-3.291
1330.000	1.368	1330.000	3514343396.377	1638.584	601.571	2240.155	0.269	0.360	-0.522	-1.120	-3.291
1331.000	0.625	1331.000	3514343397.878	1653.946	596.737	2250.683	0.265	0.360	-0.522	-1.120	-3.291
1332.000	0.625	1332.000	3514343399.378	1533.045	594.665	2127.709	0.279	0.360	-0.522	1.312	-3.291
1333.000	-0.498	1333.000	3514343400.878	1455.744	779.763	2235.508	0.349	0.360	-0.522	1.312	-3.291
1334.000	-0.498	1334.000	3514343402.379	2197.491	145.336	2342.827	0.062	0.360	-0.522	1.312	1.608
1335.000	-1.916	1335.000	3514343403.879	1391.320	645.774	2037.094	0.317	0.360	-0.522	1.312	1.608
1336.000	-1.916	1336.000	3514343405.378	1718.593	327.870	2046.462	0.160	0.446	-0.522	1.312	1.608
1337.000	-1.613	1337.000	3514343406.879	1460.051	367.040	1827.091	0.201	0.446	-0.522	1.312	1.608
1338.000	-1.613	1338.000	3514343408.379	1412.765	320.174	1732.938	0.185	0.446	0.126	1.312	1.608
1339.000	-1.770	1339.000	3514343409.879	1653.191	383.715	2036.906	0.188	0.446	0.126	1.312	1.608
1340.000	-1.770	1340.000	3514343411.378	1555.378	570.491	2125.869	0.268	0.446	0.126	-2.524	1.608
1341.000	1.090	1341.000	3514343412.878	1450.239	541.385	1991.623	0.272	0.446	0.126	-2.524	1.608
1342.000	1.090	1342.000	3514343414.378	1089.977	1236.788	2326.764	0.532	0.446	0.126	-2.524	-1.380
1343.000	2.846	1343.000	3514343415.878	1879.187	285.640	2164.827	0.132	0.446	0.126	-2.524	-1.380
1344.000	2.846	1344.000	3514343417.378	1341.858	681.590	2023.448	0.337	-0.142	0.126	-2.524	-1.380
1345.000	2.475	1345.000	3514343418.878	1633.122	543.062	2176.184	0.250	-0.142	0.126	-2.524	-1.380
1346.000	2.475	1346.000	3514343420.379	1707.714	455.544	2163.259	0.211	-0.142	0.704	-2.524	-1.380
1347.000	2.859	1347.000	3514343421.879	1952.936	301.624	2254.560	0.134	-0.142	0.704	-2.524	-1.380
1348.000	2.859	1348.000	3514343423.379	1798.912	298.763	2097.675	0.142	-0.142	0.704	2.286	-1.380
1349.000	0.737	1349.000	3514343424.879	1091.797	875.865	1967.662	0.445	-0.142	0.704	2.286	-1.380
1350.000	0.737	1350.000	3514343426.379	1028.172	965.849	1994.021	0.484	-0.142	0.704	2.286	1.803
1351.000	-0.846	1351.000	3514343427.878	1052.148	838.470	1890.618	0.443	-0.142	0.704	2.286	1.803
1352.000	-0.846	1352.000	3514343429.378	1470.485	240.550	1711.034	0.141	-0.343	0.704	2.286	1.803
1353.000	-1.416	1353.000	3514343430.878	1877.989	179.179	2057.167	0.087	-0.343	0.704	2.286	1.803
1354.000	-1.416	1354.000	3514343432.378	1496.681	439.067	1935.748	0.227	-0.343	0.076	2.286	1.803
1355.000	-1.639	1355.000	3514343433.878	1661.094	628.310	2289.404	0.274	-0.343	0.076	2.286	1.803
1356.000	-1.639	1356.000	3514343435.378	1410.412	632.750	2043.162	0.310	-0.343	0.076	0.345	1.803
1357.000	-1.738	1357.000	3514343436.879	1469.819	663.139	2132.958	0.311	-0.343	0.076	0.345	1.803
1358.000	-1.738	1358.000	3514343438.379	1736.264	25.357	1761.621	0.014	-0.343	0.076	0.345	-2.666
1359.000	1.273	1359.000	3514343439.879	1224.864	412.624	1637.489	0.252	-0.343	0.076	0.345	-2.666
1360.000	1.273	1360.000	3514343441.379	1058.097	917.009	1975.106	0.464	1.230	0.076	0.345	-2.666
1361.000	2.277	1361.000	3514343442.879	1505.961	405.422	1911.382	0.212	1.230	0.076	0.345	-2.666
1362.000	2.277	1362.000	3514343444.379	1666.289	338.427	2004.716	0.169	1.230	0.310	0.345	-2.666
1363.000	2.298	1363.000	3514343445.879	1571.806	605.123	2176.929	0.278	1.230	0.310	0.345	-2.666
1364.000	2.298	1364.000	3514343447.378	1972.339	179.475	2151.813	0.083	1.230	0.310	-2.609	-2.666
1365.000	5.149	1365.000	3514343448.879	1827.639	735.659	2563.298	0.287	1.230	0.310	-2.609	-2.666
1366.000	5.149	1366.000	3514343450.378	1261.627	1058.004	2319.631	0.456	1.230	0.310	-2.609	1.868
1367.000	3.532	1367.000	3514343451.879	1437.762	535.662	1973.424	0.271	1.230	0.310	-2.609	1.868
1368.000	3.532	1368.000	3514343453.378	1450.327	522.934	1973.261	0.265	-0.381	0.310	-2.609	1.868
1369.000	2.932	1369.000	3514343454.880	1452.547	593.086	2045.633	0.290	-0.381	0.310	-2.609	1.868
1370.000	2.932	1370.000	3514343456.379	1732.978	95.411	1828.389	0.052	-0.381	-1.712	-2.609	1.868
1371.000	0.863	1371.000	3514343457.879	1785.992	257.718	2043.709	0.126	-0.381	-1.712	-2.609	1.868
1372.000	0.863	1372.000	3514343459.379	1318.592	559.835	1878.428	0.298	-0.381	-1.712	1.488	1.868
1373.000	-0.326	1373.000	3514343460.879	1044.111	984.004	2028.115	0.485	-0.381	-1.712	1.488	1.868
1374.000	-0.326	1374.000	3514343462.379	1411.566	419.728	1831.295	0.229	-0.381	-1.712	1.488	-0.057
1375.000	0.045	1375.000	3514343463.879	1527.051	646.662	2173.712	0.297	-0.381	-1.712	1.488	-0.057
1376.000	0.045	1376.000	3514343465.378	1272.816	596.441	1869.257	0.319	-2.092	-1.712	1.488	-0.057
1377.000	-2.419	1377.000	3514343466.878	1533.622	98.963	1632.585	0.061	-2.092	-1.712	1.488	-0.057
1378.000	-2.419	1378.000	3514343468.378	1288.489	512.475	1800.965	0.285	-2.092	1.513	1.488	-0.057
1379.000	-1.199	1379.000	3514343469.879	1442.424	343.952	1786.376	0.193	-2.092	1.513	1.488	-0.057
1380.000	-1.199	1380.000	3514343471.378	1658.342	174.246	1832.587	0.095	-2.092	1.513	-2.253	-0.057
1381.000	1.292	1381.000	3514343472.879	1652.126	250.811	1902.937	0.132	-2.092	1.513	-2.253	-0.057
1382.000	1.292	1382.000	3514343474.379	955.977	1285.233	2241.210	0.573	-2.092	1.513	-2.253	0.190
1383.000	1.299	1383.000	3514343475.879	1207.326	425.747	1633.073	0.261	-2.092	1.513	-2.253	0.190
1384.000	1.299	1384.000	3514343477.379	1421.290	356.384	1777.674	0.200	1.971	1.513	-2.253	0.190
1385.000	3.013	1385.000	3514343478.879	1489.089	478.534	1967.622	0.243	1.971	1.513	-2.253	0.190
1386.000	3.013	1386.000	3514343480.379	1736.486	457.518	2194.003	0.209	1.971	-0.858	-2.253	0.190
1387.000	1.823	1387.000	3514343481.879	1969.320	379.867	2349.187	0.162	1.971	-0.858	-2.253	0.190
1388.000	1.823	1388.000	3514343483.378	1519.947	419.827	1939.774	0.216	1.971	-0.858	3.887	0.190
1389.000	-1.821	1389.000	3514343484.879	995.937	1021.201	2017.138	0.506	1.971	-0.858	3.887	0.190
1390.000	-1.821	1390.000	3514343486.378	1941.658	490.571	2432.229	0.202	1.971	-0.858	3.887	-0.530
1391.000	-0.911	1391.000	3514343487.879	1278.233	696.193	1974.426	0.353	1.971	-0.858	3.887	-0.530
1392.000	-0.911	1392.000	3514343489.379	1376.268	400.291	1776.559	0.225	-0.305	-0.858	3.887	-0.530
1393.000	-1.518	1393.000	3514343490.880	1583.305	344.347	1927.652	0.179	-0.305	-0.858	3.887	-0.530
1394.000	-1.518	1394.000	3514343492.379	1263.625	178.390	1442.015	0.124	-0.305	0.482	3.887	-0.530
1395.000	-1.379	1395.000	3514343493.879	1499.301	270.840	1770.141	0.153	-0.305	0.482	3.887	-0.530
1396.000	-1.379	1396.000	3514343495.380	1591.253	490.571	2081.824	0.236	-0.305	0.482	-2.680	-0.530
1397.000	1.595	1397.000	3514343496.879	1382.928	582.035	1964.963	0.296	-0.305	0.482	-2.680	-0.530
1398.000	1.595	1398.000	3514343498.379	1355.001	716.913	2071.913	0.346	-0.305	0.482	-2.680	-1.120
1399.000	3.042	1399.000	3514343499.879	1350.916	164.477	1515.393	0.109	-0.305	0.482	-2.680	-1.120
1400.000	3.042	1400.000	3514343501.379	1175.136	547.798	1722.934	0.318	-0.483	0.482	-2.680	-1.120
1401.000	2.177	1401.000	3514343502.878	1564.569	322.443	1887.012	0.171	-0.483	0.482	-2.680	-1.120
1402.000	2.177	1402.000	3514343504.378	1708.292	417.360	2125.652	0.196	-0.483	0.727	-2.680	-1.120
1403.000	2.637	1403.000	3514343505.879	1318.148	822.979	2141.128	0.384	-0.483	0.727	-2.680	-1.120
1404.000	2.637	1404.000	3514343507.380	1844.688	303.598	2148.286	0.141	-0.483	0.727	0.438	-1.120
1405.000	2.474	1405.000	3514343508.880	1628.416	459.096	2087.513	0.220	-0.483	0.727	0.438	-1.120
1406.000	2.474	1406.000	3514343510.380	1397.447	773.350	2170.797	0.356	-0.483	0.727	0.438	1.843
1407.000	0.869	1407.000	3514343511.880	856.788	835.214	1692.002	0.494	-0.483	0.727	0.438	1.843
1408.000	0.869	1408.000	3514343513.379	1533.800	428.904	1962.704	0.219	0.224	0.727	0.438	1.843
1409.000	0.797	1409.000	3514343514.880	1546.409	250.022	1796.431	0.139	0.224	0.727	0.438	1.843
1410.000	0.797	1410.000	3514343516.379	1740.482	274.688	2015.170	0.136	0.224	-2.139	0.438	1.843
1411.000	-1.703	1411.000	3514343517.879	2096.126	-9.176	2086.950	-0.004	0.224	-2.139	0.438	1.843
1412.000	-1.703	1412.000	3514343519.379	1560.395	530.827	2091.222	0.254	0.224	-2.139	1.200	1.843
1413.000	-2.603	1413.000	3514343520.879	1105.517	790.814	1896.331	0.417	0.224	-2.139	1.200	1.843
1414.000	-2.603	1414.000	3514343522.379	1373.027	328.758	1701.785	0.193	0.224	-2.139	1.200	-2.421
1415.000	0.240	1415.000	3514343523.879	1879.543	242.030	2121.572	0.114	0.224	-2.139	1.200	-2.421
1416.000	0.240	1416.000	3514343525.380	1238.317	691.161	1929.478	0.358	-0.025	-2.139	1.200	-2.421
1417.000	-0.012	1417.000	3514343526.879	1281.829	207.990	1489.819	0.140	-0.025	-2.139	1.200	-2.421
1418.000	-0.012	1418.000	3514343528.379	1600.666	136.949	1737.615	0.079	-0.025	2.272	1.200	-2.421
1419.000	2.028	1419.000	3514343529.880	1486.247	461.563	1947.810	0.237	-0.025	2.272	1.200	-2.421
1420.000	2.028	1420.000	3514343531.379	1764.191	80.907	1845.098	0.044	-0.025	2.272	-1.970	-2.421
1421.000	4.336	1421.000	3514343532.880	1505.295	458.208	1963.503	0.233	-0.025	2.272	-1.970	-2.421
1422.000	4.336	1422.000	3514343534.379	1379.154	510.699	1889.853	0.270	-0.025	2.272	-1.970	2.148
1423.000	2.472	1423.000	3514343535.879	976.845	733.785	1710.630	0.429	-0.025	2.272	-1.970	2.148
1424.000	2.472	1424.000	3514343537.380	1350.561	397.035	1747.596	0.227	-0.535	2.272	-1.970	2.148
1425.000	1.651	1425.000	3514343538.879	1408.769	312.675	1721.444	0.182	-0.535	2.272	-1.970	2.148
1426.000	1.651	1426.000	3514343540.379	1720.990	97.877	1818.867	0.054	-0.535	-1.699	-1.970	2.148
1427.000	-0.418	1427.000	3514343541.880	1684.715	301.230	1985.945	0.152	-0.535	-1.699	-1.970	2.148
1428.000	-0.418	1428.000	3514343543.380	1857.786	297.875	2155.661	0.138	-0.535	-1.699	0.324	2.148
1429.000	-0.472	1429.000	3514343544.880	1203.730	660.081	1863.810	0.354	-0.535	-1.699	0.324	2.148
1430.000	-0.472	1430.000	3514343546.380	1654.124	431.371	2085.495	0.207	-0.535	-1.699	0.324	-1.776
1431.000	1.766	1431.000	3514343547.880	1213.675	577.694	1791.369	0.322	-0.535	-1.699	0.324	-1.776
1432.000	1.766	1432.000	3514343549.380	1229.615	454.656	1684.271	0.270	-1.125	-1.699	0.324	-1.776
1433.000	0.363	1433.000	3514343550.879	1529.137	165.070	1694.207	0.097	-1.125	-1.699	0.324	-1.776
1434.000	0.363	1434.000	3514343552.379	1586.990	232.163	1819.153	0.128	-1.125	-0.119	0.324	-1.776
1435.000	-0.125	1435.000	3514343553.880	1397.092	212.726	1609.817	0.132	-1.125	-0.119	0.324	-1.776
1436.000	-0.125	1436.000	3514343555.380	1381.152	350.563	1731.715	0.202	-1.125	-0.119	-1.296	-1.776
1437.000	1.521	1437.000	3514343556.879	1614.696	428.411	2043.107	0.210	-1.125	-0.119	-1.296	-1.776
1438.000	1.521	1438.000	3514343558.380	1008.725	776.409	1785.133	0.435	-1.125	-0.119	-1.296	-0.462
1439.000	2.492	1439.000	3514343559.881	1663.314	221.310	1884.624	0.117	-1.125	-0.119	-1.296	-0.462
1440.000	2.492	1440.000	3514343561.380	1381.685	651.201	2032.885	0.320	0.266	-0.119	-1.296	-0.462
1441.000	2.448	1441.000	3514343562.880	1475.858	352.832	1828.690	0.193	0.266	-0.119	-1.296	-0.462
1442.000	2.448	1442.000	3514343564.380	1479.809	417.360	1897.169	0.220	0.266	0.619	-1.296	-0.462
1443.000	2.816	1443.000	3514343565.880	1608.525	531.617	2140.141	0.248	0.266	0.619	-1.296	-0.462
1444.000	2.816	1444.000	3514343567.380	1605.861	94.523	1700.383	0.056	0.266	0.619	1.982	-0.462
1445.000	1.006	1445.000	3514343568.879	1193.296	616.963	1810.259	0.341	0.266	0.619	1.982	-0.462
1446.000	1.006	1446.000	3514343570.379	1780.442	172.469	1952.911	0.088	0.266	0.619	1.982	1.786
1447.000	-0.532	1447.000	3514343571.879	1467.066	615.483	2082.550	0.296	0.266	0.619	1.982	1.786
1448.000	-0.532	1448.000	3514343573.380	1494.061	576.510	2070.571	0.278	0.238	0.619	1.982	1.786
1449.000	-0.539	1449.000	3514343574.879	1692.041	359.443	2051.484	0.175	0.238	0.619	1.982	1.786
1450.000	-0.539	1450.000	3514343576.380	1279.076	343.755	1622.831	0.212	0.238	-1.697	1.982	1.786
1451.000	-2.512	1451.000	3514343577.880	1363.525	431.371	1794.896	0.240	0.238	-1.697	1.982	1.786
1452.000	-2.512	1452.000	3514343579.381	1432.212	607.985	2040.197	0.298	0.238	-1.697	-2.222	1.786
