mesurement	 time stamp	N1S0	N3P0	 Ntot	ex.rate	time stamp 2		# AOM frequency A	# AOM frequency B	# Zeeman shift (Hz)	# fHgAOM (Hz)	# drift rate A	# drift rate B
306.000	-3.672	306.000	3512090347.296	965.213	505.766	1470.978	0.344	-0.999	0.925	-0.765	-1.088
307.000	-2.746	307.000	3512090348.796	1511.555	281.496	1793.051	0.157	-0.999	0.925	-0.765	-1.088
308.000	-2.746	308.000	3512090350.296	1783.905	100.640	1884.545	0.053	-0.999	0.925	0.845	-1.088
309.000	-3.591	309.000	3512090351.796	1816.139	642.617	2458.756	0.261	-0.999	0.925	0.845	-1.088
310.000	-3.591	310.000	3512090353.296	2554.956	44.005	2598.962	0.017	-0.999	0.925	0.845	-0.793
311.000	-2.798	311.000	3512090354.796	2179.687	534.281	2713.968	0.197	-0.999	0.925	0.845	-0.793
312.000	-2.798	312.000	3512090356.296	2088.267	916.417	3004.684	0.305	3.363	0.925	0.845	-0.793
313.000	0.565	313.000	3512090357.796	1300.699	278.635	1579.334	0.176	3.363	0.925	0.845	-0.793
314.000	0.565	314.000	3512090359.296	1218.692	235.320	1454.013	0.162	3.363	-0.922	0.845	-0.793
315.000	-0.356	315.000	3512090360.797	1647.419	385.590	2033.009	0.190	3.363	-0.922	0.845	-0.793
316.000	-0.356	316.000	3512090362.297	1602.575	194.176	1796.751	0.108	3.363	-0.922	-2.174	-0.793
317.000	1.818	317.000	3512090363.796	1811.921	630.382	2442.303	0.258	3.363	-0.922	-2.174	-0.793
318.000	1.818	318.000	3512090365.297	2210.367	378.880	2589.248	0.146	3.363	-0.922	-2.174	0.962
319.000	0.856	319.000	3512090366.796	2114.863	811.139	2926.002	0.277	3.363	-0.922	-2.174	0.962
320.000	0.856	320.000	3512090368.296	2679.943	449.723	3129.666	0.144	-0.130	-0.922	-2.174	0.962
321.000	0.727	321.000	3512090369.797	1284.537	251.896	1536.434	0.164	-0.130	-0.922	-2.174	0.962
322.000	0.727	322.000	3512090371.296	1254.523	374.440	1628.964	0.230	-0.130	-0.726	-2.174	0.962
323.000	0.001	323.000	3512090372.796	1490.465	218.251	1708.716	0.128	-0.130	-0.726	-2.174	0.962
324.000	0.001	324.000	3512090374.296	1500.322	260.776	1761.098	0.148	-0.130	-0.726	-0.994	0.962
325.000	0.995	325.000	3512090375.796	1976.556	487.019	2463.575	0.198	-0.130	-0.726	-0.994	0.962
326.000	0.995	326.000	3512090377.297	2122.233	444.494	2566.727	0.173	-0.130	-0.726	-0.994	-1.188
327.000	2.183	327.000	3512090378.797	2444.400	503.299	2947.699	0.171	-0.130	-0.726	-0.994	-1.188
328.000	2.183	328.000	3512090380.296	2191.719	564.867	2756.587	0.205	0.586	-0.726	-0.994	-1.188
329.000	2.769	329.000	3512090381.796	1173.626	419.630	1593.256	0.263	0.586	-0.726	-0.994	-1.188
330.000	2.769	330.000	3512090383.296	1430.436	209.766	1640.202	0.128	0.586	0.181	-0.994	-1.188
331.000	2.950	331.000	3512090384.797	1406.194	478.435	1884.629	0.254	0.586	0.181	-0.994	-1.188
332.000	2.950	332.000	3512090386.296	1658.786	187.368	1846.154	0.101	0.586	0.181	-0.218	-1.188
333.000	3.168	333.000	3512090387.797	1966.123	477.448	2443.571	0.195	0.586	0.181	-0.218	-1.188
334.000	3.168	334.000	3512090389.297	2038.583	393.483	2432.067	0.162	0.586	0.181	-0.218	0.304
335.000	2.864	335.000	3512090390.797	1891.708	981.932	2873.640	0.342	0.586	0.181	-0.218	0.304
336.000	2.864	336.000	3512090392.297	2451.548	438.968	2890.517	0.152	-1.205	0.181	-0.218	0.304
337.000	1.659	337.000	3512090393.797	1224.376	259.790	1484.165	0.175	-1.205	0.181	-0.218	0.304
338.000	1.659	338.000	3512090395.297	989.011	383.814	1372.825	0.280	-1.205	-1.355	-0.218	0.304
339.000	0.304	339.000	3512090396.797	1473.593	109.125	1582.718	0.069	-1.205	-1.355	-0.218	0.304
340.000	0.304	340.000	3512090398.297	1446.953	274.984	1721.937	0.160	-1.205	-1.355	-0.299	0.304
341.000	0.603	341.000	3512090399.797	2168.897	589.830	2758.728	0.214	-1.205	-1.355	-0.299	0.304
342.000	0.603	342.000	3512090401.297	2163.703	365.955	2529.658	0.145	-1.205	-1.355	-0.299	-1.689
343.000	2.291	343.000	3512090402.796	2396.670	384.208	2780.878	0.138	-1.205	-1.355	-0.299	-1.689
344.000	2.291	344.000	3512090404.296	2358.175	337.835	2696.010	0.125	0.930	-1.355	-0.299	-1.689
345.000	3.268	345.000	3512090405.796	1209.413	383.912	1593.325	0.241	0.930	-1.355	-0.299	-1.689
346.000	3.268	346.000	3512090407.297	1443.978	115.440	1559.418	0.074	0.930	0.807	-0.299	-1.689
347.000	4.115	347.000	3512090408.796	1264.558	436.502	1701.059	0.257	0.930	0.807	-0.299	-1.689
348.000	4.115	348.000	3512090410.298	1484.515	347.800	1832.316	0.190	0.930	0.807	-0.615	-1.689
349.000	4.761	349.000	3512090411.797	2055.056	553.619	2608.675	0.212	0.930	0.807	-0.615	-1.689
350.000	4.761	350.000	3512090413.298	2101.587	439.067	2540.655	0.173	0.930	0.807	-0.615	-0.114
351.000	4.881	351.000	3512090414.797	2700.899	296.000	2996.899	0.099	0.930	0.807	-0.615	-0.114
352.000	4.881	352.000	3512090416.297	2206.993	567.827	2774.820	0.205	-1.485	0.807	-0.615	-0.114
353.000	3.371	353.000	3512090417.797	1110.534	321.259	1431.793	0.224	-1.485	0.807	-0.615	-0.114
354.000	3.371	354.000	3512090419.297	1325.874	220.718	1546.591	0.143	-1.485	-0.594	-0.615	-0.114
355.000	2.789	355.000	3512090420.796	1505.206	368.816	1874.022	0.197	-1.485	-0.594	-0.615	-0.114
356.000	2.789	356.000	3512090422.296	1580.331	246.864	1827.195	0.135	-1.485	-0.594	-0.351	-0.114
357.000	3.190	357.000	3512090423.797	2156.599	371.184	2527.783	0.147	-1.485	-0.594	-0.351	-0.114
358.000	3.190	358.000	3512090425.297	2281.718	434.726	2716.444	0.160	-1.485	-0.594	-0.351	0.942
359.000	2.207	359.000	3512090426.797	2275.103	799.102	3074.205	0.260	-1.485	-0.594	-0.351	0.942
360.000	2.207	360.000	3512090428.297	2231.457	796.537	3027.994	0.263	-0.726	-0.594	-0.351	0.942
361.000	1.417	361.000	3512090429.798	1261.228	375.032	1636.260	0.229	-0.726	-0.594	-0.351	0.942
362.000	1.417	362.000	3512090431.297	1301.365	246.075	1547.440	0.159	-0.726	-0.549	-0.351	0.942
363.000	0.854	363.000	3512090432.798	1420.757	467.976	1888.734	0.248	-0.726	-0.549	-0.351	0.942
364.000	0.854	364.000	3512090434.298	1807.570	137.739	1945.309	0.071	-0.726	-0.549	0.117	0.942
365.000	0.783	365.000	3512090435.798	1989.610	684.353	2673.963	0.256	-0.726	-0.549	0.117	0.942
366.000	0.783	366.000	3512090437.297	2098.968	299.158	2398.125	0.125	-0.726	-0.549	0.117	0.028
367.000	0.711	367.000	3512090438.797	1842.291	946.905	2789.196	0.339	-0.726	-0.549	0.117	0.028
368.000	0.711	368.000	3512090440.297	2484.315	413.118	2897.433	0.143	-0.624	-0.549	0.117	0.028
369.000	-0.010	369.000	3512090441.792	1315.973	175.331	1491.304	0.118	-0.624	-0.549	0.117	0.028
370.000	-0.010	370.000	3512090443.296	1259.185	362.206	1621.391	0.223	-0.624	-1.574	0.117	0.028
371.000	-1.678	371.000	3512090444.836	1500.366	435.811	1936.177	0.225	-0.624	-1.574	0.117	0.028
372.000	-1.678	372.000	3512090446.344	19.891	83.373	103.265	0.807	-0.624	-1.574	-1.167	0.028
373.000	-0.404	373.000	3512090447.808	-19.048	-6.611	-25.658	0.258	-0.624	-1.574	-1.167	0.028
374.000	-0.404	374.000	3512090449.309	22.067	12.629	34.696	0.364	-0.624	-1.574	-1.167	-1.752
375.000	1.388	375.000	3512090450.798	20.779	-22.003	-1.223	17.984	-0.624	-1.574	-1.167	-1.752
376.000	1.388	376.000	3512090452.297	-22.422	25.259	2.837	8.904	0.941	-1.574	-1.167	-1.752
377.000	2.275	377.000	3512090453.797	-16.783	-66.600	-83.383	0.799	0.941	-1.574	-1.167	-1.752
392.000	4.959	392.000	3512090476.297	2575.602	301.230	2876.832	0.105	0.074	-3.322	-0.516	0.121
393.000	4.979	393.000	3512090477.797	855.633	423.971	1279.604	0.331	0.074	-3.322	-0.516	0.121
394.000	4.979	394.000	3512090479.297	1518.659	-4.835	1513.824	-0.003	0.074	-3.095	-0.516	0.121
395.000	1.732	395.000	3512090480.798	1765.612	179.968	1945.580	0.093	0.074	-3.095	-0.516	0.121
396.000	1.732	396.000	3512090482.298	1541.791	380.262	1922.053	0.198	0.074	-3.095	0.521	0.121
397.000	1.330	397.000	3512090483.798	1948.629	633.342	2581.971	0.245	0.074	-3.095	0.521	0.121
398.000	1.330	398.000	3512090485.298	2368.032	133.891	2501.923	0.054	0.074	-3.095	0.521	-1.123
399.000	2.548	399.000	3512090486.798	2267.999	579.273	2847.271	0.203	0.074	-3.095	0.521	-1.123
400.000	2.548	400.000	3512090488.297	2208.413	533.590	2742.003	0.195	-2.976	-3.095	0.521	-1.123
401.000	-0.634	401.000	3512090489.797	1415.651	200.984	1616.635	0.124	-2.976	-3.095	0.521	-1.123
402.000	-0.634	402.000	3512090491.297	1348.119	382.136	1730.255	0.221	-2.976	0.937	0.521	-1.123
403.000	0.191	403.000	3512090492.797	1489.710	592.790	2082.500	0.285	-2.976	0.937	0.521	-1.123
404.000	0.191	404.000	3512090494.298	1797.403	220.126	2017.528	0.109	-2.976	0.937	-1.706	-1.123
405.000	2.107	405.000	3512090495.797	2198.735	251.107	2449.842	0.102	-2.976	0.937	-1.706	-1.123
406.000	2.107	406.000	3512090497.299	1924.165	604.235	2528.400	0.239	-2.976	0.937	-1.706	-0.079
407.000	2.289	407.000	3512090498.799	2498.834	716.913	3215.747	0.223	-2.976	0.937	-1.706	-0.079
408.000	2.289	408.000	3512090500.298	2609.168	313.563	2922.731	0.107	0.859	0.937	-1.706	-0.079
409.000	2.975	409.000	3512090501.798	1213.498	287.515	1501.013	0.192	0.859	0.937	-1.706	-0.079
410.000	2.975	410.000	3512090503.298	1253.102	176.712	1429.815	0.124	0.859	-1.562	-1.706	-0.079
411.000	1.217	411.000	3512090504.798	1753.979	162.702	1916.681	0.085	0.859	-1.562	-1.706	-0.079
412.000	1.217	412.000	3512090506.297	1569.808	299.552	1869.360	0.160	0.859	-1.562	1.214	-0.079
413.000	0.163	413.000	3512090507.797	1790.787	618.246	2409.033	0.257	0.859	-1.562	1.214	-0.079
414.000	0.163	414.000	3512090509.297	2085.825	468.371	2554.196	0.183	0.859	-1.562	1.214	-1.029
415.000	1.352	415.000	3512090510.797	2128.937	716.321	2845.258	0.252	0.859	-1.562	1.214	-1.029
416.000	1.352	416.000	3512090512.297	2299.301	728.062	3027.363	0.240	-0.605	-1.562	1.214	-1.029
417.000	0.535	417.000	3512090513.797	1287.424	328.166	1615.589	0.203	-0.605	-1.562	1.214	-1.029
418.000	0.535	418.000	3512090515.298	1150.316	283.371	1433.687	0.198	-0.605	0.670	1.214	-1.029
419.000	1.033	419.000	3512090516.798	1438.872	443.408	1882.281	0.236	-0.605	0.670	1.214	-1.029
420.000	1.033	420.000	3512090518.299	1555.733	300.342	1856.075	0.162	-0.605	0.670	-0.652	-1.029
421.000	1.886	421.000	3512090519.799	1775.203	697.081	2472.283	0.282	-0.605	0.670	-0.652	-1.029
422.000	1.886	422.000	3512090521.299	1871.107	749.867	2620.974	0.286	-0.605	0.670	-0.652	-0.100
423.000	2.159	423.000	3512090522.799	2295.793	618.345	2914.138	0.212	-0.605	0.670	-0.652	-0.100
424.000	2.159	424.000	3512090524.298	2292.729	639.755	2932.484	0.218	-0.049	0.670	-0.652	-0.100
425.000	1.885	425.000	3512090525.798	1230.814	302.019	1532.833	0.197	-0.049	0.670	-0.652	-0.100
426.000	1.885	426.000	3512090527.298	976.535	473.206	1449.740	0.326	-0.049	-0.656	-0.652	-0.100
427.000	1.015	427.000	3512090528.797	1622.644	276.366	1899.009	0.146	-0.049	-0.656	-0.652	-0.100
428.000	1.015	428.000	3512090530.298	1278.499	478.435	1756.935	0.272	-0.049	-0.656	0.037	-0.100
429.000	1.187	429.000	3512090531.797	2338.062	254.955	2593.017	0.098	-0.049	-0.656	0.037	-0.100
430.000	1.187	430.000	3512090533.299	1785.459	997.916	2783.375	0.359	-0.049	-0.656	0.037	0.053
431.000	1.313	431.000	3512090534.798	2520.946	489.387	3010.333	0.163	-0.049	-0.656	0.037	0.053
432.000	1.313	432.000	3512090536.298	2528.538	223.086	2751.624	0.081	1.151	-0.656	0.037	0.053
433.000	2.285	433.000	3512090537.798	1237.429	288.008	1525.437	0.189	1.151	-0.656	0.037	0.053
434.000	2.285	434.000	3512090539.299	1206.216	418.544	1624.760	0.258	1.151	1.128	0.037	0.053
435.000	3.245	435.000	3512090540.798	1602.575	212.923	1815.498	0.117	1.151	1.128	0.037	0.053
436.000	3.245	436.000	3512090542.538	1395.893	414.203	1810.096	0.229	1.151	1.128	2.315	0.053
437.000	1.034	437.000	3512090543.845	-6.127	53.181	47.054	1.130	1.151	1.128	2.315	0.053
438.000	1.034	438.000	3512090545.309	6.926	8.091	15.017	0.539	1.151	1.128	2.315	-0.725
439.000	1.983	439.000	3512090546.810	52.392	0.592	52.984	0.011	1.151	1.128	2.315	-0.725
440.000	1.983	440.000	3512090548.297	1952.270	1143.745	3096.015	0.369	0.612	1.128	2.315	-0.725
441.000	2.438	441.000	3512090549.798	1249.595	433.048	1682.643	0.257	0.612	1.128	2.315	-0.725
442.000	2.438	442.000	3512090551.299	1346.476	227.131	1573.607	0.144	0.612	0.992	2.315	-0.725
443.000	3.303	443.000	3512090552.799	1217.982	433.936	1651.918	0.263	0.612	0.992	2.315	-0.725
454.000	2.263	454.000	3512090569.299	2741.614	111.789	2853.404	0.039	-1.005	-0.576	-0.460	0.012
455.000	2.486	455.000	3512090570.799	2759.108	209.371	2968.479	0.071	-1.005	-0.576	-0.460	0.012
456.000	2.486	456.000	3512090572.296	2094.661	615.779	2710.440	0.227	0.205	-0.576	-0.460	0.012
457.000	2.475	457.000	3512090573.799	1314.064	277.352	1591.416	0.174	0.205	-0.576	-0.460	0.012
458.000	2.475	458.000	3512090575.298	1322.855	252.390	1575.245	0.160	0.205	-1.029	-0.460	0.012
459.000	1.224	459.000	3512090576.798	1574.736	245.384	1820.121	0.135	0.205	-1.029	-0.460	0.012
460.000	1.224	460.000	3512090578.298	1476.257	284.062	1760.319	0.161	0.205	-1.029	-1.269	0.012
461.000	2.694	461.000	3512090579.798	1979.309	448.144	2427.454	0.185	0.205	-1.029	-1.269	0.012
462.000	2.694	462.000	3512090581.299	2186.747	610.254	2797.001	0.218	0.205	-1.029	-1.269	1.394
463.000	1.478	463.000	3512090582.799	2176.091	696.883	2872.974	0.243	0.205	-1.029	-1.269	1.394
464.000	1.478	464.000	3512090584.299	1945.166	772.955	2718.122	0.284	-0.125	-1.029	-1.269	1.394
465.000	1.120	465.000	3512090585.799	1156.887	372.368	1529.256	0.243	-0.125	-1.029	-1.269	1.394
466.000	1.120	466.000	3512090587.299	1421.689	229.400	1651.090	0.139	-0.125	0.236	-1.269	1.394
467.000	1.135	467.000	3512090588.799	1416.006	246.667	1662.673	0.148	-0.125	0.236	-1.269	1.394
468.000	1.135	468.000	3512090590.299	1773.249	170.200	1943.449	0.088	-0.125	0.236	0.299	1.394
469.000	1.033	469.000	3512090591.799	1782.973	763.187	2546.160	0.300	-0.125	0.236	0.299	1.394
470.000	1.033	470.000	3512090593.298	2115.307	242.622	2357.928	0.103	-0.125	0.236	0.299	0.372
471.000	0.829	471.000	3512090594.799	1860.672	635.315	2495.988	0.255	-0.125	0.236	0.299	0.372
472.000	0.829	472.000	3512090596.298	2292.285	262.848	2555.134	0.103	-0.930	0.236	0.299	0.372
473.000	-0.392	473.000	3512090597.798	1152.980	289.587	1442.567	0.201	-0.930	0.236	0.299	0.372
474.000	-0.392	474.000	3512090599.298	1186.680	421.406	1608.086	0.262	-0.930	-0.541	0.299	0.372
475.000	-1.192	475.000	3512090600.798	1298.080	367.040	1665.120	0.220	-0.930	-0.541	0.299	0.372
476.000	-1.192	476.000	3512090602.299	1391.098	390.326	1781.423	0.219	-0.930	-0.541	-1.751	0.372
477.000	0.853	477.000	3512090603.800	2323.943	220.816	2544.759	0.087	-0.930	-0.541	-1.751	0.372
478.000	0.853	478.000	3512090605.299	1832.567	524.019	2356.586	0.222	-0.930	-0.541	-1.751	-1.349
479.000	2.445	479.000	3512090606.799	2399.023	638.275	3037.298	0.210	-0.930	-0.541	-1.751	-1.349
480.000	2.445	480.000	3512090608.299	2497.014	387.366	2884.379	0.134	0.545	-0.541	-1.751	-1.349
481.000	2.713	481.000	3512090609.799	1138.550	256.632	1395.183	0.184	0.545	-0.541	-1.751	-1.349
482.000	2.713	482.000	3512090611.298	1249.328	348.195	1597.523	0.218	0.545	-0.012	-1.751	-1.349
483.000	2.428	483.000	3512090612.799	1483.938	407.790	1891.728	0.216	0.545	-0.012	-1.751	-1.349
484.000	2.428	484.000	3512090614.298	1386.791	300.243	1687.034	0.178	0.545	-0.012	1.206	-1.349
485.000	1.471	485.000	3512090615.798	1911.288	519.480	2430.769	0.214	0.545	-0.012	1.206	-1.349
486.000	1.471	486.000	3512090617.298	1907.115	568.419	2475.534	0.230	0.545	-0.012	1.206	-0.675
487.000	2.434	487.000	3512090618.798	2614.319	250.910	2865.229	0.088	0.545	-0.012	1.206	-0.675
488.000	2.434	488.000	3512090620.297	2058.297	926.580	2984.877	0.310	0.303	-0.012	1.206	-0.675
489.000	2.460	489.000	3512090621.796	1225.885	305.867	1531.752	0.200	0.303	-0.012	1.206	-0.675
490.000	2.460	490.000	3512090623.299	1095.171	340.302	1435.473	0.237	0.303	-0.334	1.206	-0.675
491.000	1.822	491.000	3512090624.796	1503.963	207.792	1711.755	0.121	0.303	-0.334	1.206	-0.675
492.000	1.822	492.000	3512090626.299	1342.214	315.142	1657.355	0.190	0.303	-0.334	0.141	-0.675
493.000	1.935	493.000	3512090627.799	2283.272	305.571	2588.843	0.118	0.303	-0.334	0.141	-0.675
494.000	1.935	494.000	3512090629.299	2037.518	314.451	2351.969	0.134	0.303	-0.334	0.141	1.983
495.000	0.157	495.000	3512090630.799	2204.906	485.145	2690.051	0.180	0.303	-0.334	0.141	1.983
496.000	0.157	496.000	3512090632.299	2180.664	479.224	2659.888	0.180	0.333	-0.334	0.141	1.983
497.000	0.215	497.000	3512090633.798	1164.302	286.726	1451.028	0.198	0.333	-0.334	0.141	1.983
498.000	0.215	498.000	3512090635.298	1216.561	222.592	1439.153	0.155	0.333	0.612	0.141	1.983
499.000	0.539	499.000	3512090636.799	1157.065	571.971	1729.036	0.331	0.333	0.612	0.141	1.983
500.000	0.539	500.000	3512090638.300	1460.051	119.979	1580.030	0.076	0.333	0.612	0.139	1.983
501.000	0.660	501.000	3512090639.799	2203.174	377.006	2580.180	0.146	0.333	0.612	0.139	1.983
502.000	0.660	502.000	3512090641.300	2090.620	283.568	2374.189	0.119	0.333	0.612	0.139	-0.002
503.000	0.876	503.000	3512090642.799	2429.792	267.288	2697.081	0.099	0.333	0.612	0.139	-0.002
504.000	0.876	504.000	3512090644.299	2165.701	617.358	2783.059	0.222	-0.382	0.612	0.139	-0.002
505.000	0.187	505.000	3512090645.798	1320.057	230.880	1550.938	0.149	-0.382	0.612	0.139	-0.002
506.000	0.187	506.000	3512090647.298	1123.588	458.307	1581.895	0.290	-0.382	-2.267	0.139	-0.002
507.000	-2.536	507.000	3512090648.799	1741.059	48.840	1789.899	0.027	-0.382	-2.267	0.139	-0.002
508.000	-2.536	508.000	3512090650.299	1256.788	483.270	1740.057	0.278	-0.382	-2.267	-0.237	-0.002
509.000	-2.014	509.000	3512090651.799	2019.802	524.019	2543.821	0.206	-0.382	-2.267	-0.237	-0.002
510.000	-2.014	510.000	3512090653.299	1998.579	518.593	2517.172	0.206	-0.382	-2.267	-0.237	1.092
511.000	-2.935	511.000	3512090654.800	1801.399	911.780	2713.178	0.336	-0.382	-2.267	-0.237	1.092
512.000	-2.935	512.000	3512090656.300	2433.744	423.675	2857.419	0.148	1.253	-2.267	-0.237	1.092
513.000	-1.988	513.000	3512090657.800	1294.661	236.208	1530.869	0.154	1.253	-2.267	-0.237	1.092
514.000	-1.988	514.000	3512090659.300	1321.034	241.438	1562.472	0.155	1.253	2.228	-0.237	1.092
515.000	-0.100	515.000	3512090660.799	1353.757	483.270	1837.027	0.263	1.253	2.228	-0.237	1.092
516.000	-0.100	516.000	3512090662.299	1440.071	211.936	1652.007	0.128	1.253	2.228	0.000	1.092
517.000	0.199	517.000	3512090663.799	2381.663	393.878	2775.541	0.142	1.253	2.228	0.000	1.092
518.000	0.199	518.000	3512090665.299	2132.712	449.624	2582.336	0.174	1.253	2.228	0.000	-1.671
519.000	2.132	519.000	3512090666.799	2324.964	468.075	2793.039	0.168	1.253	2.228	0.000	-1.671
520.000	2.132	520.000	3512090668.298	1963.681	671.921	2635.601	0.255	0.002	2.228	0.000	-1.671
521.000	1.885	521.000	3512090669.798	1050.283	304.288	1354.571	0.225	0.002	2.228	0.000	-1.671
522.000	1.885	522.000	3512090671.299	1331.912	149.184	1481.097	0.101	0.002	-1.199	0.000	-1.671
523.000	0.296	523.000	3512090672.800	1495.616	99.160	1594.776	0.062	0.002	-1.199	0.000	-1.671
524.000	0.296	524.000	3512090674.300	1179.842	353.326	1533.168	0.230	0.002	-1.199	0.286	-1.671
525.000	0.279	525.000	3512090675.800	1778.443	542.865	2321.308	0.234	0.002	-1.199	0.286	-1.671
526.000	0.279	526.000	3512090677.300	2079.698	443.211	2522.909	0.176	0.002	-1.199	0.286	0.777
527.000	-0.267	527.000	3512090678.800	1827.950	773.548	2601.497	0.297	0.002	-1.199	0.286	0.777
528.000	-0.267	528.000	3512090680.299	2128.405	570.393	2698.797	0.211	-1.102	-1.199	0.286	0.777
529.000	-1.649	529.000	3512090681.799	1146.454	458.110	1604.563	0.286	-1.102	-1.199	0.286	0.777
530.000	-1.649	530.000	3512090683.299	1188.811	406.803	1595.614	0.255	-1.102	1.497	0.286	0.777
531.000	-0.407	531.000	3512090684.799	1439.582	436.600	1876.183	0.233	-1.102	1.497	0.286	0.777
532.000	-0.407	532.000	3512090686.300	1340.571	308.728	1649.299	0.187	-1.102	1.497	-0.518	0.777
533.000	0.400	533.000	3512090687.799	2049.461	405.126	2454.587	0.165	-1.102	1.497	-0.518	0.777
534.000	0.400	534.000	3512090689.300	1939.083	499.945	2439.028	0.205	-1.102	1.497	-0.518	-0.765
535.000	1.493	535.000	3512090690.800	2341.658	485.440	2827.099	0.172	-1.102	1.497	-0.518	-0.765
536.000	1.493	536.000	3512090692.299	2108.958	458.504	2567.462	0.179	-0.272	1.497	-0.518	-0.765
537.000	0.948	537.000	3512090693.800	1064.003	393.384	1457.387	0.270	-0.272	1.497	-0.518	-0.765
538.000	0.948	538.000	3512090695.300	1071.950	142.968	1214.918	0.118	-0.272	-0.405	-0.518	-0.765
539.000	0.001	539.000	3512090696.800	1445.399	215.784	1661.183	0.130	-0.272	-0.405	-0.518	-0.765
540.000	0.001	540.000	3512090698.299	1226.773	405.915	1632.688	0.249	-0.272	-0.405	0.355	-0.765
541.000	-0.065	541.000	3512090699.799	1875.635	485.835	2361.470	0.206	-0.272	-0.405	0.355	-0.765
542.000	-0.065	542.000	3512090701.299	2353.291	200.886	2554.177	0.079	-0.272	-0.405	0.355	0.061
543.000	0.219	543.000	3512090702.800	2259.784	621.009	2880.792	0.216	-0.272	-0.405	0.355	0.061
544.000	0.219	544.000	3512090704.299	2110.068	548.883	2658.951	0.206	-1.354	-0.405	0.355	0.061
545.000	-1.532	545.000	3512090705.799	1231.568	202.267	1433.835	0.141	-1.354	-0.405	0.355	0.061
546.000	-1.532	546.000	3512090707.300	1115.063	378.880	1493.943	0.254	-1.354	1.056	0.355	0.061
547.000	-0.834	547.000	3512090708.800	1362.771	177.600	1540.371	0.115	-1.354	1.056	0.355	0.061
548.000	-0.834	548.000	3512090710.300	1437.540	134.088	1571.628	0.085	-1.354	1.056	-1.131	0.061
549.000	0.596	549.000	3512090711.800	2180.619	344.051	2524.670	0.136	-1.354	1.056	-1.131	0.061
550.000	0.596	550.000	3512090713.301	2010.834	586.870	2597.704	0.226	-1.354	1.056	-1.131	-0.081
551.000	0.958	551.000	3512090714.801	1967.099	809.462	2776.561	0.292	-1.354	1.056	-1.131	-0.081
552.000	0.958	552.000	3512090716.299	1879.321	664.817	2544.137	0.261	1.001	1.056	-1.131	-0.081
553.000	1.592	553.000	3512090717.799	1207.459	293.336	1500.795	0.195	1.001	1.056	-1.131	-0.081
554.000	1.592	554.000	3512090719.299	996.381	316.128	1312.510	0.241	1.001	-0.267	-1.131	-0.081
555.000	1.090	555.000	3512090720.799	1459.651	212.035	1671.686	0.127	1.001	-0.267	-1.131	-0.081
556.000	1.090	556.000	3512090722.300	1310.201	369.803	1680.004	0.220	1.001	-0.267	0.797	-0.081
557.000	0.536	557.000	3512090723.799	1927.006	339.414	2266.420	0.150	1.001	-0.267	0.797	-0.081
558.000	0.536	558.000	3512090725.301	1801.221	521.454	2322.675	0.225	1.001	-0.267	0.797	-0.269
559.000	1.118	559.000	3512090726.800	2160.284	578.878	2739.162	0.211	1.001	-0.267	0.797	-0.269
560.000	1.118	560.000	3512090728.300	2403.285	323.627	2726.912	0.119	0.404	-0.267	0.797	-0.269
561.000	1.308	561.000	3512090729.800	1157.154	345.827	1502.981	0.230	0.404	-0.267	0.797	-0.269
562.000	1.308	562.000	3512090731.300	1224.775	307.051	1531.826	0.200	0.404	0.830	0.797	-0.269
563.000	1.893	563.000	3512090732.800	1295.016	338.131	1633.147	0.207	0.404	0.830	0.797	-0.269
564.000	1.893	564.000	3512090734.299	1508.980	92.155	1601.135	0.058	0.404	0.830	0.665	-0.269
565.000	1.470	565.000	3512090735.800	1937.218	723.227	2660.446	0.272	0.404	0.830	0.665	-0.269
566.000	1.470	566.000	3512090737.300	2139.638	425.550	2565.188	0.166	0.404	0.830	0.665	-0.824
567.000	2.605	567.000	3512090738.800	2027.439	502.707	2530.146	0.199	0.404	0.830	0.665	-0.824
568.000	2.605	568.000	3512090740.299	2251.881	305.670	2557.551	0.120	-0.264	0.830	0.665	-0.824
569.000	2.071	569.000	3512090741.800	934.577	269.656	1204.233	0.224	-0.264	0.830	0.665	-0.824
570.000	2.071	570.000	3512090743.300	1314.863	181.054	1495.917	0.121	-0.264	-1.330	0.665	-0.824
571.000	0.502	571.000	3512090744.800	1386.791	351.254	1738.045	0.202	-0.264	-1.330	0.665	-0.824
572.000	0.502	572.000	3512090746.300	1425.197	155.696	1580.893	0.098	-0.264	-1.330	-0.943	-0.824
573.000	1.654	573.000	3512090747.800	1909.734	590.126	2499.860	0.236	-0.264	-1.330	-0.943	-0.824
574.000	1.654	574.000	3512090749.301	1901.077	565.361	2466.437	0.229	-0.264	-1.330	-0.943	-0.704
575.000	2.711	575.000	3512090750.800	2385.525	406.507	2792.032	0.146	-0.264	-1.330	-0.943	-0.704
576.000	2.711	576.000	3512090752.300	2244.067	513.659	2757.726	0.186	-0.915	-1.330	-0.943	-0.704
577.000	1.505	577.000	3512090753.800	1296.481	181.547	1478.028	0.123	-0.915	-1.330	-0.943	-0.704
578.000	1.505	578.000	3512090755.299	1050.771	279.523	1330.294	0.210	-0.915	-0.922	-0.943	-0.704
579.000	0.262	579.000	3512090756.800	1374.137	372.072	1746.209	0.213	-0.915	-0.922	-0.943	-0.704
580.000	0.262	580.000	3512090758.300	1321.745	321.950	1643.694	0.196	-0.915	-0.922	-0.061	-0.704
581.000	0.596	581.000	3512090759.801	1640.715	757.169	2397.884	0.316	-0.915	-0.922	-0.061	-0.704
582.000	0.596	582.000	3512090761.301	2172.894	269.064	2441.958	0.110	-0.915	-0.922	-0.061	0.362
583.000	0.531	583.000	3512090762.802	1981.308	564.670	2545.978	0.222	-0.915	-0.922	-0.061	0.362
584.000	0.531	584.000	3512090764.301	1808.414	810.153	2618.567	0.309	0.777	-0.922	-0.061	0.362
585.000	1.054	585.000	3512090765.800	925.918	441.238	1367.156	0.323	0.777	-0.922	-0.061	0.362
586.000	1.054	586.000	3512090767.301	1174.825	173.061	1347.887	0.128	0.777	-0.153	-0.061	0.362
587.000	0.597	587.000	3512090768.800	1290.842	317.312	1608.155	0.197	0.777	-0.153	-0.061	0.362
588.000	0.597	588.000	3512090770.300	1536.952	239.070	1776.021	0.135	0.777	-0.153	-1.829	0.362
589.000	2.764	589.000	3512090771.800	2382.418	175.627	2558.045	0.069	0.777	-0.153	-1.829	0.362
590.000	2.764	590.000	3512090773.300	1835.809	708.526	2544.335	0.278	0.777	-0.153	-1.829	0.779
591.000	2.243	591.000	3512090774.800	1988.101	734.278	2722.379	0.270	0.777	-0.153	-1.829	0.779
592.000	2.243	592.000	3512090776.299	2250.727	305.078	2555.804	0.119	-1.729	-0.153	-1.829	0.779
593.000	0.116	593.000	3512090777.801	1198.490	192.203	1390.693	0.138	-1.729	-0.153	-1.829	0.779
594.000	0.116	594.000	3512090779.300	1015.917	389.339	1405.256	0.277	-1.729	-0.558	-1.829	0.779
595.000	-0.835	595.000	3512090780.801	1311.222	431.568	1742.791	0.248	-1.729	-0.558	-1.829	0.779
596.000	-0.835	596.000	3512090782.301	1320.457	337.736	1658.194	0.204	-1.729	-0.558	1.867	0.779
597.000	-2.448	597.000	3512090783.801	1712.066	858.697	2570.762	0.334	-1.729	-0.558	1.867	0.779
598.000	-2.448	598.000	3512090785.301	2381.041	234.827	2615.868	0.090	-1.729	-0.558	1.867	-1.338
599.000	-0.778	599.000	3512090786.801	1997.780	556.678	2554.458	0.218	-1.729	-0.558	1.867	-1.338
600.000	-0.778	600.000	3512090788.300	2090.354	375.624	2465.979	0.152	1.235	-0.558	1.867	-1.338
601.000	0.079	601.000	3512090789.800	1037.096	117.709	1154.806	0.102	1.235	-0.558	1.867	-1.338
602.000	0.079	602.000	3512090791.300	1219.403	236.998	1456.400	0.163	1.235	-0.391	1.867	-1.338
603.000	-0.785	603.000	3512090792.800	1527.584	190.427	1718.010	0.111	1.235	-0.391	1.867	-1.338
604.000	-0.785	604.000	3512090794.301	1310.379	281.595	1591.974	0.177	1.235	-0.391	-2.173	-1.338
605.000	1.868	605.000	3512090795.801	2238.517	277.944	2516.461	0.110	1.235	-0.391	-2.173	-1.338
606.000	1.868	606.000	3512090797.301	1875.502	461.464	2336.967	0.197	1.235	-0.391	-2.173	-0.584
607.000	2.785	607.000	3512090798.802	2630.880	154.117	2784.998	0.055	1.235	-0.391	-2.173	-0.584
608.000	2.785	608.000	3512090800.301	2097.191	623.574	2720.765	0.229	0.541	-0.391	-2.173	-0.584
609.000	3.014	609.000	3512090801.801	1221.845	394.272	1616.117	0.244	0.541	-0.391	-2.173	-0.584
610.000	3.014	610.000	3512090803.301	1334.266	244.792	1579.058	0.155	0.541	0.588	-2.173	-0.584
611.000	3.169	611.000	3512090804.801	1524.298	163.590	1687.887	0.097	0.541	0.588	-2.173	-0.584
612.000	3.169	612.000	3512090806.300	1255.544	227.723	1483.267	0.154	0.541	0.588	0.774	-0.584
613.000	2.832	613.000	3512090807.800	2171.695	374.539	2546.234	0.147	0.541	0.588	0.774	-0.584
614.000	2.832	614.000	3512090809.301	1966.256	336.848	2303.104	0.146	0.541	0.588	0.774	1.547
615.000	1.547	615.000	3512090810.801	1682.362	786.867	2469.229	0.319	0.541	0.588	0.774	1.547
616.000	1.547	616.000	3512090812.301	2409.368	363.192	2772.561	0.131	-0.791	0.588	0.774	1.547
617.000	0.390	617.000	3512090813.801	1072.439	164.971	1237.409	0.133	-0.791	0.588	0.774	1.547
618.000	0.390	618.000	3512090815.301	982.928	239.168	1222.096	0.196	-0.791	0.504	0.774	1.547
619.000	0.524	619.000	3512090816.801	1446.109	219.040	1665.150	0.132	-0.791	0.504	0.774	1.547
620.000	0.524	620.000	3512090818.301	1542.768	246.963	1789.731	0.138	-0.791	0.504	-0.007	1.547
621.000	0.921	621.000	3512090819.801	2137.729	420.715	2558.444	0.164	-0.791	0.504	-0.007	1.547
622.000	0.921	622.000	3512090821.302	1683.739	785.190	2468.929	0.318	-0.791	0.504	-0.007	-1.670
623.000	3.007	623.000	3512090822.801	2500.433	489.486	2989.918	0.164	-0.791	0.504	-0.007	-1.670
624.000	3.007	624.000	3512090824.300	1909.601	768.713	2678.314	0.287	0.555	0.504	-0.007	-1.670
625.000	3.222	625.000	3512090825.800	1236.408	172.469	1408.877	0.122	0.555	0.504	-0.007	-1.670
626.000	3.222	626.000	3512090827.301	1229.748	137.344	1367.092	0.100	0.555	0.057	-0.007	-1.670
627.000	2.894	627.000	3512090828.800	1473.637	393.779	1867.417	0.211	0.555	0.057	-0.007	-1.670
628.000	2.894	628.000	3512090830.301	1352.159	317.806	1669.965	0.190	0.555	0.057	1.366	-1.670
629.000	1.872	629.000	3512090831.802	1629.481	651.990	2281.471	0.286	0.555	0.057	1.366	-1.670
630.000	1.872	630.000	3512090833.302	2225.996	381.446	2607.442	0.146	0.555	0.057	1.366	1.097
631.000	1.168	631.000	3512090834.802	2145.898	543.062	2688.960	0.202	0.555	0.057	1.366	1.097
632.000	1.168	632.000	3512090836.301	2228.260	251.304	2479.564	0.101	-0.195	0.057	1.366	1.097
633.000	0.664	633.000	3512090837.801	1007.304	402.067	1409.371	0.285	-0.195	0.057	1.366	1.097
634.000	0.664	634.000	3512090839.300	1294.927	214.699	1509.626	0.142	-0.195	-0.183	1.366	1.097
635.000	0.105	635.000	3512090840.801	1345.233	385.590	1730.823	0.223	-0.195	-0.183	1.366	1.097
636.000	0.105	636.000	3512090842.300	1530.825	219.040	1749.865	0.125	-0.195	-0.183	-1.241	1.097
637.000	1.673	637.000	3512090843.801	1407.126	641.235	2048.362	0.313	-0.195	-0.183	-1.241	1.097
638.000	1.673	638.000	3512090845.302	2425.574	320.864	2746.439	0.117	-0.195	-0.183	-1.241	-0.895
639.000	2.949	639.000	3512090846.802	2398.713	358.259	2756.972	0.130	-0.195	-0.183	-1.241	-0.895
640.000	2.949	640.000	3512090848.301	2212.943	475.771	2688.714	0.177	-1.273	-0.183	-1.241	-0.895
641.000	1.276	641.000	3512090849.801	1264.380	234.630	1499.010	0.157	-1.273	-0.183	-1.241	-0.895
642.000	1.276	642.000	3512090851.302	1151.604	241.438	1393.042	0.173	-1.273	-0.868	-1.241	-0.895
643.000	-0.017	643.000	3512090852.801	1389.322	199.110	1588.431	0.125	-1.273	-0.868	-1.241	-0.895
644.000	-0.017	644.000	3512090854.302	1296.703	320.174	1616.877	0.198	-1.273	-0.868	-1.746	-0.895
645.000	2.205	645.000	3512090855.801	2295.571	305.472	2601.043	0.117	-1.273	-0.868	-1.746	-0.895
646.000	2.205	646.000	3512090857.302	1732.268	729.246	2461.514	0.296	-1.273	-0.868	-1.746	0.418
647.000	2.120	647.000	3512090858.802	2150.161	498.958	2649.119	0.188	-1.273	-0.868	-1.746	0.418
648.000	2.120	648.000	3512090860.300	2343.346	449.328	2792.674	0.161	0.149	-0.868	-1.746	0.418
649.000	1.855	649.000	3512090861.800	1116.927	220.027	1336.954	0.165	0.149	-0.868	-1.746	0.418
650.000	1.855	650.000	3512090863.300	1180.375	247.358	1427.733	0.173	0.149	0.646	-1.746	0.418
651.000	2.118	651.000	3512090864.802	1327.117	431.371	1758.488	0.245	0.149	0.646	-1.746	0.418
652.000	2.118	652.000	3512090866.301	1545.698	289.587	1835.285	0.158	0.149	0.646	1.591	0.418
653.000	0.943	653.000	3512090867.803	1867.777	542.470	2410.247	0.225	0.149	0.646	1.591	0.418
654.000	0.943	654.000	3512090869.302	2364.169	365.462	2729.631	0.134	0.149	0.646	1.591	-0.244
655.000	1.634	655.000	3512090870.803	2267.555	381.446	2649.000	0.144	0.149	0.646	1.591	-0.244
656.000	1.634	656.000	3512090872.301	2092.663	810.646	2903.309	0.279	0.077	0.646	1.591	-0.244
657.000	1.277	657.000	3512090873.801	1223.221	235.912	1459.133	0.162	0.077	0.646	1.591	-0.244
658.000	1.277	658.000	3512090875.302	1056.632	283.963	1340.595	0.212	0.077	-0.779	1.591	-0.244
659.000	0.042	659.000	3512090876.801	1361.705	233.840	1595.545	0.147	0.077	-0.779	1.591	-0.244
660.000	0.042	660.000	3512090878.301	1295.860	404.040	1699.900	0.238	0.077	-0.779	-0.811	-0.244
661.000	1.324	661.000	3512090879.802	2498.835	163.096	2661.931	0.061	0.077	-0.779	-0.811	-0.244
662.000	1.324	662.000	3512090881.302	1545.655	685.931	2231.586	0.307	0.077	-0.779	-0.811	1.203
663.000	0.519	663.000	3512090882.803	1605.372	783.414	2388.787	0.328	0.077	-0.779	-0.811	1.203
664.000	0.519	664.000	3512090884.301	2400.577	458.208	2858.786	0.160	0.446	-0.779	-0.811	1.203
665.000	0.565	665.000	3512090885.802	1102.586	247.654	1350.240	0.183	0.446	-0.779	-0.811	1.203
666.000	0.565	666.000	3512090887.302	1220.824	436.107	1656.931	0.263	0.446	0.811	-0.811	1.203
667.000	1.065	667.000	3512090888.802	1328.050	344.446	1672.495	0.206	0.446	0.811	-0.811	1.203
668.000	1.065	668.000	3512090890.302	1339.816	270.248	1610.064	0.168	0.446	0.811	2.189	1.203
669.000	-0.765	669.000	3512090891.803	1772.405	596.539	2368.944	0.252	0.446	0.811	2.189	1.203
670.000	-0.765	670.000	3512090893.303	2202.552	243.115	2445.667	0.099	0.446	0.811	2.189	-1.492
671.000	1.264	671.000	3512090894.802	2287.712	418.248	2705.960	0.155	0.446	0.811	2.189	-1.492
672.000	1.264	672.000	3512090896.301	2251.926	542.865	2794.791	0.194	0.710	0.811	2.189	-1.492
673.000	1.541	673.000	3512090897.801	1111.733	152.341	1264.074	0.121	0.710	0.811	2.189	-1.492
674.000	1.541	674.000	3512090899.302	1127.006	313.563	1440.569	0.218	0.710	-0.339	2.189	-1.492
675.000	0.770	675.000	3512090900.803	1502.409	150.664	1653.073	0.091	0.710	-0.339	2.189	-1.492
676.000	0.770	676.000	3512090902.302	1556.621	224.270	1780.891	0.126	0.710	-0.339	-1.356	-1.492
677.000	2.557	677.000	3512090903.802	2100.211	449.526	2549.737	0.176	0.710	-0.339	-1.356	-1.492
678.000	2.557	678.000	3512090905.302	2030.991	586.278	2617.269	0.224	0.710	-0.339	-1.356	0.353
679.000	2.658	679.000	3512090906.802	2225.064	610.550	2835.614	0.215	0.710	-0.339	-1.356	0.353
680.000	2.658	680.000	3512090908.302	2307.071	582.825	2889.895	0.202	0.864	-0.339	-1.356	0.353
681.000	3.127	681.000	3512090909.801	1048.507	472.219	1520.726	0.311	0.864	-0.339	-1.356	0.353
682.000	3.127	682.000	3512090911.302	1404.373	129.451	1533.824	0.084	0.864	0.309	-1.356	0.353
683.000	3.075	683.000	3512090912.803	1379.998	133.989	1513.987	0.089	0.864	0.309	-1.356	0.353
684.000	3.075	684.000	3512090914.303	1433.677	393.384	1827.062	0.215	0.864	0.309	0.424	0.353
685.000	3.082	685.000	3512090915.803	1936.863	535.169	2472.031	0.216	0.864	0.309	0.424	0.353
686.000	3.082	686.000	3512090917.304	1896.104	452.584	2348.688	0.193	0.864	0.309	0.424	-0.121
687.000	3.712	687.000	3512090918.803	2327.272	284.062	2611.334	0.109	0.864	0.309	0.424	-0.121
688.000	3.712	688.000	3512090920.303	2107.803	725.299	2833.103	0.256	-2.012	0.309	0.424	-0.121
689.000	1.252	689.000	3512090921.802	1123.898	151.947	1275.845	0.119	-2.012	0.309	0.424	-0.121
690.000	1.252	690.000	3512090923.302	1154.268	279.918	1434.185	0.195	-2.012	1.128	0.424	-0.121
691.000	2.002	691.000	3512090924.802	1523.054	409.763	1932.818	0.212	-2.012	1.128	0.424	-0.121
692.000	2.002	692.000	3512090926.302	1611.056	140.304	1751.360	0.080	-2.012	1.128	-0.212	-0.121
693.000	2.637	693.000	3512090927.802	1996.093	583.811	2579.904	0.226	-2.012	1.128	-0.212	-0.121
694.000	2.637	694.000	3512090929.302	1795.094	644.294	2439.388	0.264	-2.012	1.128	-0.212	1.310
695.000	1.746	695.000	3512090930.803	2241.359	589.830	2831.188	0.208	-2.012	1.128	-0.212	1.310
696.000	1.746	696.000	3512090932.301	2451.104	284.259	2735.363	0.104	0.677	1.128	-0.212	1.310
697.000	2.014	697.000	3512090933.802	1280.187	284.160	1564.347	0.182	0.677	1.128	-0.212	1.310
698.000	2.014	698.000	3512090935.303	1122.300	146.027	1268.327	0.115	0.677	-1.173	-0.212	1.310
699.000	0.418	699.000	3512090936.804	1618.515	176.022	1794.536	0.098	0.677	-1.173	-0.212	1.310
700.000	0.418	700.000	3512090938.303	1266.644	266.894	1533.538	0.174	0.677	-1.173	0.337	1.310
701.000	0.513	701.000	3512090939.804	2335.087	200.984	2536.071	0.079	0.677	-1.173	0.337	1.310
702.000	0.513	702.000	3512090941.304	2280.120	329.251	2609.371	0.126	0.677	-1.173	0.337	-0.929
703.000	1.914	703.000	3512090942.804	2269.863	508.430	2778.293	0.183	0.677	-1.173	0.337	-0.929
704.000	1.914	704.000	3512090944.302	1900.988	736.942	2637.930	0.279	-0.592	-1.173	0.337	-0.929
705.000	0.944	705.000	3512090945.814	1178.688	321.456	1500.144	0.214	-0.592	-1.173	0.337	-0.929
706.000	0.944	706.000	3512090947.302	1113.686	426.142	1539.828	0.277	-0.592	0.676	0.337	-0.929
707.000	1.184	707.000	3512090948.803	1555.378	383.518	1938.896	0.198	-0.592	0.676	0.337	-0.929
708.000	1.184	708.000	3512090950.317	1342.524	376.611	1719.135	0.219	-0.592	0.676	0.417	-0.929
709.000	1.128	709.000	3512090951.803	2189.588	599.105	2788.693	0.215	-0.592	0.676	0.417	-0.929
710.000	1.128	710.000	3512090953.304	2033.034	610.451	2643.485	0.231	-0.592	0.676	0.417	0.857
711.000	0.703	711.000	3512090954.804	2257.609	254.264	2511.873	0.101	-0.592	0.676	0.417	0.857
712.000	0.703	712.000	3512090956.303	2348.318	427.523	2775.842	0.154	0.556	0.676	0.417	0.857
713.000	0.859	713.000	3512090957.803	1367.610	127.477	1495.088	0.085	0.556	0.676	0.417	0.857
714.000	0.859	714.000	3512090959.303	1178.244	301.131	1479.375	0.204	0.556	0.189	0.417	0.857
715.000	0.632	715.000	3512090960.803	1549.473	200.787	1750.259	0.115	0.556	0.189	0.417	0.857
716.000	0.632	716.000	3512090962.304	1392.518	418.446	1810.964	0.231	0.556	0.189	0.143	0.857
717.000	0.886	717.000	3512090963.803	2030.725	460.379	2491.104	0.185	0.556	0.189	0.143	0.857
718.000	0.886	718.000	3512090965.303	2293.085	545.726	2838.811	0.192	0.556	0.189	0.143	0.470
719.000	0.819	719.000	3512090966.803	2366.656	628.803	2995.459	0.210	0.556	0.189	0.143	0.470
720.000	0.819	720.000	3512090968.302	2265.157	680.998	2946.155	0.231	1.052	0.189	0.143	0.470
721.000	1.502	721.000	3512090969.804	1261.982	225.454	1487.436	0.152	1.052	0.189	0.143	0.470
722.000	1.502	722.000	3512090971.304	1297.458	457.025	1754.483	0.260	1.052	1.035	0.143	0.470
723.000	2.122	723.000	3512090972.804	1347.763	356.187	1703.950	0.209	1.052	1.035	0.143	0.470
724.000	2.122	724.000	3512090974.304	1481.318	313.958	1795.276	0.175	1.052	1.035	0.066	0.470
725.000	2.490	725.000	3512090975.804	2113.353	321.752	2435.105	0.132	1.052	1.035	0.066	0.470
726.000	2.490	726.000	3512090977.304	2013.542	489.782	2503.324	0.196	1.052	1.035	0.066	0.189
727.000	2.658	727.000	3512090978.815	2492.574	683.465	3176.039	0.215	1.052	1.035	0.066	0.189
728.000	2.658	728.000	3512090980.302	2225.596	811.041	3036.637	0.267	0.969	1.035	0.066	0.189
729.000	3.312	729.000	3512090981.803	1243.156	377.203	1620.359	0.233	0.969	1.035	0.066	0.189
730.000	3.312	730.000	3512090983.304	1201.820	263.736	1465.557	0.180	0.969	-0.304	0.066	0.189
731.000	2.635	731.000	3512090984.817	1561.017	297.184	1858.201	0.160	0.969	-0.304	0.066	0.189
732.000	2.635	732.000	3512090986.304	1442.913	356.483	1799.396	0.198	0.969	-0.304	0.565	0.189
733.000	2.439	733.000	3512090987.804	1992.141	646.563	2638.704	0.245	0.969	-0.304	0.565	0.189
734.000	2.439	734.000	3512090989.305	2160.417	385.294	2545.711	0.151	0.969	-0.304	0.565	0.462
735.000	2.278	735.000	3512090990.805	2418.959	446.467	2865.426	0.156	0.969	-0.304	0.565	0.462
736.000	2.278	736.000	3512090992.303	2422.156	352.832	2774.988	0.127	-0.470	-0.304	0.565	0.462
737.000	1.513	737.000	3512090993.803	1161.550	252.291	1413.840	0.178	-0.470	-0.304	0.565	0.462
738.000	1.513	738.000	3512090995.303	1290.709	290.968	1581.677	0.184	-0.470	0.340	0.565	0.462
739.000	1.537	739.000	3512090996.804	1448.951	142.573	1591.524	0.090	-0.470	0.340	0.565	0.462
740.000	1.537	740.000	3512090998.303	1278.766	454.064	1732.830	0.262	-0.470	0.340	-0.833	0.462
741.000	2.786	741.000	3512090999.805	2173.515	436.403	2609.918	0.167	-0.470	0.340	-0.833	0.462
742.000	2.786	742.000	3512091001.305	2165.701	453.670	2619.370	0.173	-0.470	0.340	-0.833	-0.255
743.000	3.370	743.000	3512091002.805	2377.889	530.137	2908.025	0.182	-0.470	0.340	-0.833	-0.255
744.000	3.370	744.000	3512091004.318	2259.385	475.771	2735.156	0.174	0.049	0.340	-0.833	-0.255
745.000	3.087	745.000	3512091005.813	1119.458	312.675	1432.133	0.218	0.049	0.340	-0.833	-0.255
746.000	3.087	746.000	3512091007.305	1592.363	44.893	1637.257	0.027	0.049	1.534	-0.833	-0.255
747.000	4.390	747.000	3512091008.804	1119.858	489.288	1609.146	0.304	0.049	1.534	-0.833	-0.255
748.000	4.390	748.000	3512091010.304	1736.441	187.368	1923.809	0.097	0.049	1.534	0.053	-0.255
749.000	4.665	749.000	3512091011.804	2220.713	440.350	2661.062	0.165	0.049	1.534	0.053	-0.255
750.000	4.665	750.000	3512091013.318	2128.139	533.393	2661.531	0.200	0.049	1.534	0.053	-0.074
751.000	5.112	751.000	3512091014.805	2599.667	366.448	2966.115	0.124	0.049	1.534	0.053	-0.074
752.000	5.112	752.000	3512091016.303	2125.785	688.398	2814.183	0.245	-1.698	1.534	0.053	-0.074
753.000	3.080	753.000	3512091017.817	1155.733	294.323	1450.056	0.203	-1.698	1.534	0.053	-0.074
754.000	3.080	754.000	3512091019.303	1228.460	287.811	1516.271	0.190	-1.698	-1.839	0.053	-0.074
755.000	0.949	755.000	3512091020.803	1495.571	410.355	1905.926	0.215	-1.698	-1.839	0.053	-0.074
756.000	0.949	756.000	3512091022.306	1671.573	-9.571	1662.002	-0.006	-1.698	-1.839	0.311	-0.074
757.000	1.045	757.000	3512091023.806	1863.869	613.609	2477.478	0.248	-1.698	-1.839	0.311	-0.074
758.000	1.045	758.000	3512091025.320	1900.233	708.329	2608.562	0.272	-1.698	-1.839	0.311	1.077
759.000	0.226	759.000	3512091026.817	2164.990	648.339	2813.330	0.230	-1.698	-1.839	0.311	1.077
760.000	0.226	760.000	3512091028.304	2682.251	250.416	2932.668	0.085	-0.117	-1.839	0.311	1.077
761.000	-0.290	761.000	3512091029.804	1418.981	81.992	1500.973	0.055	-0.117	-1.839	0.311	1.077
762.000	-0.290	762.000	3512091031.316	1292.441	147.803	1440.244	0.103	-0.117	-1.967	0.311	1.077
763.000	-2.622	763.000	3512091032.804	1648.929	154.117	1803.046	0.085	-0.117	-1.967	0.311	1.077
764.000	-2.622	764.000	3512091034.304	1411.655	423.872	1835.527	0.231	-0.117	-1.967	0.212	1.077
765.000	-2.540	765.000	3512091035.805	2196.603	381.939	2578.542	0.148	-0.117	-1.967	0.212	1.077
766.000	-2.540	766.000	3512091037.304	1888.423	582.134	2470.557	0.236	-0.117	-1.967	0.212	-1.290
767.000	-0.960	767.000	3512091038.805	2461.627	496.985	2958.612	0.168	-0.117	-1.967	0.212	-1.290
776.000	-0.691	776.000	3512091052.305	1908.802	932.105	2840.907	0.328	0.016	1.294	0.778	0.164
777.000	-1.100	777.000	3512091053.818	1499.523	228.315	1727.838	0.132	0.016	1.294	0.778	0.164
778.000	-1.100	778.000	3512091055.304	1123.499	453.078	1576.577	0.287	0.016	1.259	0.778	0.164
779.000	-0.123	779.000	3512091056.806	1762.149	41.933	1804.082	0.023	0.016	1.259	0.778	0.164
780.000	-0.123	780.000	3512091058.305	1467.688	303.696	1771.384	0.171	0.016	1.259	0.861	0.164
781.000	-0.750	781.000	3512091059.806	1902.675	791.505	2694.180	0.294	0.016	1.259	0.861	0.164
782.000	-0.750	782.000	3512091061.306	2357.909	310.998	2668.906	0.117	0.016	1.259	0.861	1.054
783.000	-1.579	783.000	3512091062.807	2698.945	192.992	2891.937	0.067	0.016	1.259	0.861	1.054
784.000	-1.579	784.000	3512091064.305	2077.478	772.363	2849.842	0.271	1.381	1.259	0.861	1.054
785.000	-0.520	785.000	3512091065.805	1289.066	198.123	1487.189	0.133	1.381	1.259	0.861	1.054
794.000	-0.921	794.000	3512091079.305	1170.740	292.152	1462.892	0.200	-0.079	0.084	-1.577	1.817
795.000	-1.113	795.000	3512091080.806	1518.703	260.283	1778.986	0.146	-0.079	0.084	-1.577	1.817
796.000	-1.113	796.000	3512091082.305	1324.853	392.595	1717.448	0.229	-0.079	0.084	1.689	1.817
797.000	-2.574	797.000	3512091083.816	2242.380	399.403	2641.783	0.151	-0.079	0.084	1.689	1.817
798.000	-2.574	798.000	3512091085.307	1980.153	605.518	2585.671	0.234	-0.079	0.084	1.689	-1.271
799.000	-1.116	799.000	3512091086.806	2516.372	436.403	2952.775	0.148	-0.079	0.084	1.689	-1.271
800.000	-1.116	800.000	3512091088.314	2209.213	597.230	2806.443	0.213	1.281	0.084	1.689	-1.271
801.000	-0.113	801.000	3512091089.805	1472.394	76.072	1548.466	0.049	1.281	0.084	1.689	-1.271
802.000	-0.113	802.000	3512091091.305	1263.448	466.200	1729.648	0.270	1.281	0.732	1.689	-1.271
803.000	0.393	803.000	3512091092.807	1694.572	62.949	1757.521	0.036	1.281	0.732	1.689	-1.271
804.000	0.393	804.000	3512091094.306	1494.061	362.403	1856.464	0.195	1.281	0.732	0.738	-1.271
805.000	-0.246	805.000	3512091095.806	2098.968	626.337	2725.304	0.230	1.281	0.732	0.738	-1.271
806.000	-0.246	806.000	3512091097.306	2264.047	528.656	2792.704	0.189	1.281	0.732	0.738	0.578
807.000	-0.654	807.000	3512091098.806	2347.563	788.150	3135.713	0.251	1.281	0.732	0.738	0.578
808.000	-0.654	808.000	3512091100.306	2479.654	603.545	3083.198	0.196	1.961	0.732	0.738	0.578
809.000	1.191	809.000	3512091101.805	1280.897	274.195	1555.092	0.176	1.961	0.732	0.738	0.578
810.000	1.191	810.000	3512091103.305	1265.401	251.600	1517.001	0.166	1.961	1.418	0.738	0.578
811.000	2.506	811.000	3512091104.806	1570.341	336.158	1906.498	0.176	1.961	1.418	0.738	0.578
812.000	2.506	812.000	3512091106.306	1637.385	422.886	2060.271	0.205	1.961	1.418	-0.360	0.578
813.000	3.044	813.000	3512091107.807	2029.260	438.574	2467.833	0.178	1.961	1.418	-0.360	0.578
814.000	3.044	814.000	3512091109.307	2215.162	249.232	2464.395	0.101	1.961	1.418	-0.360	-0.495
815.000	3.713	815.000	3512091110.817	2198.202	647.747	2845.949	0.228	1.961	1.418	-0.360	-0.495
816.000	3.713	816.000	3512091112.306	1911.466	892.342	2803.808	0.318	-0.093	1.418	-0.360	-0.495
817.000	3.506	817.000	3512091113.806	1129.448	234.926	1364.374	0.172	-0.093	1.418	-0.360	-0.495
818.000	3.506	818.000	3512091115.320	1286.180	190.131	1476.311	0.129	-0.093	0.257	-0.360	-0.495
819.000	3.657	819.000	3512091116.820	1412.632	291.955	1704.587	0.171	-0.093	0.257	-0.360	-0.495
820.000	3.657	820.000	3512091118.315	1703.585	108.237	1811.823	0.060	-0.093	0.257	-0.681	-0.495
821.000	4.497	821.000	3512091119.817	2517.349	203.944	2721.293	0.075	-0.093	0.257	-0.681	-0.495
822.000	4.497	822.000	3512091121.306	1805.838	943.254	2749.093	0.343	-0.093	0.257	-0.681	0.806
823.000	3.872	823.000	3512091122.806	2164.369	759.043	2923.412	0.260	-0.093	0.257	-0.681	0.806
824.000	3.872	824.000	3512091124.305	2427.350	683.267	3110.618	0.220	-0.386	0.257	-0.681	0.806
825.000	3.364	825.000	3512091125.805	1255.722	285.838	1541.560	0.185	-0.386	0.257	-0.681	0.806
826.000	3.364	826.000	3512091127.307	1275.303	274.294	1549.596	0.177	-0.386	-0.992	-0.681	0.806
827.000	2.268	827.000	3512091128.807	1657.276	227.131	1884.407	0.121	-0.386	-0.992	-0.681	0.806
828.000	2.268	828.000	3512091130.307	1386.480	494.518	1880.998	0.263	-0.386	-0.992	2.386	0.806
829.000	0.016	829.000	3512091131.808	2008.613	530.729	2539.342	0.209	-0.386	-0.992	2.386	0.806
830.000	0.016	830.000	3512091133.307	2274.259	463.734	2737.992	0.169	-0.386	-0.992	2.386	-0.356
831.000	0.485	831.000	3512091134.808	2435.431	505.273	2940.704	0.172	-0.386	-0.992	2.386	-0.356
832.000	0.485	832.000	3512091136.307	2090.842	709.710	2800.552	0.253	-0.075	-0.992	2.386	-0.356
833.000	0.278	833.000	3512091137.806	1273.304	259.987	1533.291	0.170	-0.075	-0.992	2.386	-0.356
834.000	0.278	834.000	3512091139.306	1263.892	310.110	1574.001	0.197	-0.075	1.267	2.386	-0.356
835.000	1.481	835.000	3512091140.806	1465.690	576.017	2041.706	0.282	-0.075	1.267	2.386	-0.356
836.000	1.481	836.000	3512091142.306	1741.547	414.992	2156.540	0.192	-0.075	1.267	-0.353	-0.356
837.000	1.906	837.000	3512091143.807	2438.672	316.622	2755.294	0.115	-0.075	1.267	-0.353	-0.356
838.000	1.906	838.000	3512091145.307	1924.431	680.998	2605.429	0.261	-0.075	1.267	-0.353	0.726
839.000	1.254	839.000	3512091146.807	2570.052	230.683	2800.735	0.082	-0.075	1.267	-0.353	0.726
840.000	1.254	840.000	3512091148.306	2316.306	429.694	2746.000	0.156	0.244	1.267	-0.353	0.726
841.000	1.356	841.000	3512091149.807	1258.475	221.211	1479.686	0.149	0.244	1.267	-0.353	0.726
842.000	1.356	842.000	3512091151.307	1314.153	317.904	1632.057	0.195	0.244	-0.798	-0.353	0.726
843.000	0.484	843.000	3512091152.806	1703.053	219.336	1922.389	0.114	0.244	-0.798	-0.353	0.726
844.000	0.484	844.000	3512091154.307	1426.840	337.539	1764.379	0.191	0.244	-0.798	1.303	0.726
845.000	-0.808	845.000	3512091155.807	1985.747	664.422	2650.169	0.251	0.244	-0.798	1.303	0.726
846.000	-0.808	846.000	3512091157.308	2593.140	128.069	2721.209	0.047	0.244	-0.798	1.303	0.659
847.000	-1.452	847.000	3512091158.818	2353.380	640.051	2993.431	0.214	0.244	-0.798	1.303	0.659
848.000	-1.452	848.000	3512091160.306	2570.541	478.238	3048.778	0.157	0.403	-0.798	1.303	0.659
849.000	-1.200	849.000	3512091161.807	1347.630	119.288	1466.918	0.081	0.403	-0.798	1.303	0.659
850.000	-1.200	850.000	3512091163.307	1152.670	437.192	1589.862	0.275	0.403	0.687	1.303	0.659
851.000	-0.550	851.000	3512091164.807	1496.948	481.494	1978.441	0.243	0.403	0.687	1.303	0.659
852.000	-0.550	852.000	3512091166.307	1474.037	311.195	1785.232	0.174	0.403	0.687	-1.812	0.659
853.000	1.331	853.000	3512091167.807	2217.116	628.705	2845.821	0.221	0.403	0.687	-1.812	0.659
854.000	1.331	854.000	3512091169.307	2225.952	541.483	2767.435	0.196	0.403	0.687	-1.812	-0.507
855.000	1.919	855.000	3512091170.807	2153.491	738.817	2892.308	0.255	0.403	0.687	-1.812	-0.507
856.000	1.919	856.000	3512091172.306	2636.608	405.224	3041.833	0.133	1.723	0.687	-1.812	-0.507
857.000	3.690	857.000	3512091173.806	1059.252	561.315	1620.567	0.346	1.723	0.687	-1.812	-0.507
858.000	3.690	858.000	3512091175.306	1336.841	94.128	1430.969	0.066	1.723	-0.614	-1.812	-0.507
859.000	2.968	859.000	3512091176.808	1526.918	344.643	1871.561	0.184	1.723	-0.614	-1.812	-0.507
860.000	2.968	860.000	3512091178.307	1556.088	303.203	1859.291	0.163	1.723	-0.614	-0.225	-0.507
861.000	3.273	861.000	3512091179.821	2425.175	385.294	2810.469	0.137	1.723	-0.614	-0.225	-0.507
862.000	3.273	862.000	3512091181.309	2140.704	602.558	2743.262	0.220	1.723	-0.614	-0.225	-1.087
863.000	4.432	863.000	3512091182.809	2254.989	680.702	2935.691	0.232	1.723	-0.614	-0.225	-1.087
864.000	4.432	864.000	3512091184.307	2290.154	490.867	2781.021	0.177	-2.496	-0.614	-0.225	-1.087
865.000	1.851	865.000	3512091185.808	1235.120	129.845	1364.966	0.095	-2.496	-0.614	-0.225	-1.087
866.000	1.851	866.000	3512091187.307	1293.151	381.544	1674.696	0.228	-2.496	-0.187	-0.225	-1.087
867.000	1.618	867.000	3512091188.807	1667.221	209.470	1876.691	0.112	-2.496	-0.187	-0.225	-1.087
868.000	1.618	868.000	3512091190.307	1416.450	393.384	1809.834	0.217	-2.496	-0.187	0.734	-1.087
869.000	0.930	869.000	3512091191.808	2391.431	379.176	2770.607	0.137	-2.496	-0.187	0.734	-1.087
870.000	0.930	870.000	3512091193.320	2184.349	393.582	2577.931	0.153	-2.496	-0.187	0.734	-0.493
871.000	1.543	871.000	3512091194.808	2754.800	221.112	2975.913	0.074	-2.496	-0.187	0.734	-0.493
872.000	1.543	872.000	3512091196.307	2014.119	882.377	2896.496	0.305	1.181	-0.187	0.734	-0.493
873.000	2.742	873.000	3512091197.808	1086.380	281.694	1368.074	0.206	1.181	-0.187	0.734	-0.493
874.000	2.742	874.000	3512091199.319	1441.048	104.192	1545.240	0.067	1.181	0.941	0.734	-0.493
875.000	3.670	875.000	3512091200.809	1338.794	301.427	1640.221	0.184	1.181	0.941	0.734	-0.493
876.000	3.670	876.000	3512091202.308	1494.683	220.718	1715.401	0.129	1.181	0.941	0.141	-0.493
877.000	3.560	877.000	3512091203.809	1855.212	681.195	2536.407	0.269	1.181	0.941	0.141	-0.493
878.000	3.560	878.000	3512091205.309	2447.730	309.419	2757.149	0.112	1.181	0.941	0.141	2.049
879.000	1.537	879.000	3512091206.809	2373.094	517.507	2890.601	0.179	1.181	0.941	0.141	2.049
880.000	1.537	880.000	3512091208.307	2481.030	333.296	2814.326	0.118	-1.232	0.941	0.141	2.049
881.000	0.255	881.000	3512091209.808	1322.677	100.147	1422.824	0.070	-1.232	0.941	0.141	2.049
882.000	0.255	882.000	3512091211.307	1275.125	218.547	1493.672	0.146	-1.232	-0.490	0.141	2.049
883.000	-0.262	883.000	3512091212.808	1563.414	385.688	1949.103	0.198	-1.232	-0.490	0.141	2.049
884.000	-0.262	884.000	3512091214.308	1656.699	259.691	1916.390	0.136	-1.232	-0.490	-1.391	2.049
885.000	1.215	885.000	3512091215.816	2484.138	207.891	2692.029	0.077	-1.232	-0.490	-1.391	2.049
886.000	1.215	886.000	3512091217.309	2163.347	502.017	2665.364	0.188	-1.232	-0.490	-1.391	-0.539
887.000	1.797	887.000	3512091218.809	2406.127	532.801	2938.928	0.181	-1.232	-0.490	-1.391	-0.539
888.000	1.797	888.000	3512091220.308	2152.114	733.193	2885.307	0.254	0.675	-0.490	-1.391	-0.539
889.000	2.421	889.000	3512091221.808	1283.916	336.256	1620.172	0.208	0.675	-0.490	-1.391	-0.539
890.000	2.421	890.000	3512091223.308	1031.457	356.384	1387.842	0.257	0.675	-0.555	-1.391	-0.539
891.000	1.780	891.000	3512091224.809	1524.209	115.440	1639.649	0.070	0.675	-0.555	-1.391	-0.539
892.000	1.780	892.000	3512091226.308	1426.218	275.280	1701.498	0.162	0.675	-0.555	0.989	-0.539
893.000	0.838	893.000	3512091227.820	1927.672	533.294	2460.966	0.217	0.675	-0.555	0.989	-0.539
894.000	0.838	894.000	3512091229.309	2654.057	252.686	2906.742	0.087	0.675	-0.555	0.989	0.648
895.000	0.208	895.000	3512091230.809	2610.146	379.571	2989.717	0.127	0.675	-0.555	0.989	0.648
896.000	0.208	896.000	3512091232.308	2138.528	860.177	2998.705	0.287	0.438	-0.555	0.989	0.648
897.000	0.584	897.000	3512091233.808	1200.710	106.955	1307.665	0.082	0.438	-0.555	0.989	0.648
898.000	0.584	898.000	3512091235.308	1177.356	398.219	1575.575	0.253	0.438	0.813	0.989	0.648
899.000	1.384	899.000	3512091236.819	1272.683	357.272	1629.955	0.219	0.438	0.813	0.989	0.648
900.000	1.384	900.000	3512091238.308	1374.848	406.014	1780.861	0.228	0.438	0.813	-1.154	0.648
901.000	2.585	901.000	3512091239.810	2420.469	214.995	2635.464	0.082	0.438	0.813	-1.154	0.648
902.000	2.585	902.000	3512091241.309	1846.864	835.116	2681.979	0.311	0.438	0.813	-1.154	1.422
903.000	1.082	903.000	3512091242.810	2101.942	686.523	2788.465	0.246	0.438	0.813	-1.154	1.422
904.000	1.082	904.000	3512091244.317	2574.136	464.129	3038.265	0.153	1.521	0.813	-1.154	1.422
905.000	2.653	905.000	3512091245.808	1180.153	295.606	1475.759	0.200	1.521	0.813	-1.154	1.422
906.000	2.653	906.000	3512091247.308	1496.770	169.805	1666.575	0.102	1.521	0.078	-1.154	1.422
907.000	2.723	907.000	3512091248.809	1618.959	327.672	1946.631	0.168	1.521	0.078	-1.154	1.422
908.000	2.723	908.000	3512091250.310	1405.927	443.211	1849.139	0.240	1.521	0.078	2.044	1.422
909.000	0.607	909.000	3512091251.809	2262.759	357.272	2620.032	0.136	1.521	0.078	2.044	1.422
910.000	0.607	910.000	3512091253.309	2125.519	468.272	2593.792	0.181	1.521	0.078	2.044	-0.831
911.000	1.375	911.000	3512091254.809	2253.169	541.483	2794.652	0.194	1.521	0.078	2.044	-0.831
912.000	1.375	912.000	3512091256.308	2191.187	624.265	2815.451	0.222	-0.876	0.078	2.044	-0.831
913.000	0.521	913.000	3512091257.809	1460.140	179.080	1639.220	0.109	-0.876	0.078	2.044	-0.831
914.000	0.521	914.000	3512091259.308	1163.059	333.000	1496.059	0.223	-0.876	0.635	2.044	-0.831
915.000	1.118	915.000	3512091260.808	1332.667	266.598	1599.265	0.167	-0.876	0.635	2.044	-0.831
916.000	1.118	916.000	3512091262.309	1573.804	173.752	1747.556	0.099	-0.876	0.635	0.393	-0.831
917.000	0.629	917.000	3512091263.820	1891.353	575.227	2466.580	0.233	-0.876	0.635	0.393	-0.831
918.000	0.629	918.000	3512091265.309	2139.239	495.209	2634.447	0.188	-0.876	0.635	0.393	0.249
919.000	0.337	919.000	3512091266.810	2156.688	632.257	2788.944	0.227	-0.876	0.635	0.393	0.249
920.000	0.337	920.000	3512091268.321	2576.179	414.598	2990.777	0.139	1.008	0.635	0.393	0.249
921.000	1.519	921.000	3512091269.810	995.760	470.640	1466.400	0.321	1.008	0.635	0.393	0.249
922.000	1.519	922.000	3512091271.320	1344.522	-22.496	1322.026	-0.017	1.008	-0.598	0.393	0.249
923.000	0.954	923.000	3512091272.809	1456.188	312.083	1768.271	0.176	1.008	-0.598	0.393	0.249
924.000	0.954	924.000	3512091274.310	1515.951	345.136	1861.087	0.185	1.008	-0.598	-0.402	0.249
925.000	1.267	925.000	3512091275.810	1865.823	623.969	2489.792	0.251	1.008	-0.598	-0.402	0.249
926.000	1.267	926.000	3512091277.309	2185.370	485.441	2670.811	0.182	1.008	-0.598	-0.402	-0.784
927.000	1.967	927.000	3512091278.810	2516.506	546.318	3062.823	0.178	1.008	-0.598	-0.402	-0.784
928.000	1.967	928.000	3512091280.309	2336.286	448.342	2784.628	0.161	-3.007	-0.598	-0.402	-0.784
929.000	-0.985	929.000	3512091281.808	1410.723	129.648	1540.371	0.084	-3.007	-0.598	-0.402	-0.784
930.000	-0.985	930.000	3512091283.320	1150.716	440.942	1591.658	0.277	-3.007	0.080	-0.402	-0.784
931.000	-0.753	931.000	3512091284.809	1542.546	272.715	1815.261	0.150	-3.007	0.080	-0.402	-0.784
932.000	-0.753	932.000	3512091286.310	1451.926	359.542	1811.467	0.198	-3.007	0.080	-0.613	-0.784
933.000	-0.180	933.000	3512091287.820	2235.054	350.859	2585.913	0.136	-3.007	0.080	-0.613	-0.784
934.000	-0.180	934.000	3512091289.311	2315.862	354.510	2670.372	0.133	-3.007	0.080	-0.613	-0.154
935.000	-0.112	935.000	3512091290.811	1876.479	905.761	2782.240	0.326	-3.007	0.080	-0.613	-0.154
936.000	-0.112	936.000	3512091292.310	2244.422	528.558	2772.980	0.191	1.716	0.080	-0.613	-0.154
937.000	1.767	937.000	3512091293.810	1187.079	264.920	1452.000	0.182	1.716	0.080	-0.613	-0.154
938.000	1.767	938.000	3512091295.320	1438.739	173.160	1611.899	0.107	1.716	0.429	-0.613	-0.154
939.000	2.331	939.000	3512091296.820	1325.252	327.179	1652.431	0.198	1.716	0.429	-0.613	-0.154
940.000	2.331	940.000	3512091298.310	1487.535	204.931	1692.465	0.121	1.716	0.429	-0.026	-0.154
941.000	2.345	941.000	3512091299.820	2069.752	541.582	2611.334	0.207	1.716	0.429	-0.026	-0.154
942.000	2.345	942.000	3512091301.311	2129.426	703.987	2833.413	0.248	1.716	0.429	-0.026	-1.200
943.000	3.550	943.000	3512091302.811	2591.542	329.054	2920.595	0.113	1.716	0.429	-0.026	-1.200
944.000	3.550	944.000	3512091304.309	2357.643	424.168	2781.811	0.152	-0.667	0.429	-0.026	-1.200
945.000	2.972	945.000	3512091305.809	1156.710	173.062	1329.771	0.130	-0.667	0.429	-0.026	-1.200
946.000	2.972	946.000	3512091307.309	1244.800	319.286	1564.085	0.204	-0.667	-0.684	-0.026	-1.200
947.000	2.349	947.000	3512091308.811	1529.981	224.960	1754.941	0.128	-0.667	-0.684	-0.026	-1.200
948.000	2.349	948.000	3512091310.310	1616.827	213.416	1830.244	0.117	-0.667	-0.684	0.365	-1.200
949.000	1.863	949.000	3512091311.811	2045.954	468.766	2514.720	0.186	-0.667	-0.684	0.365	-1.200
950.000	1.863	950.000	3512091313.321	2216.805	347.899	2564.705	0.136	-0.667	-0.684	0.365	0.354
951.000	1.575	951.000	3512091314.810	2405.195	473.699	2878.894	0.165	-0.667	-0.684	0.365	0.354
952.000	1.575	952.000	3512091316.309	2263.869	629.494	2893.363	0.218	0.658	-0.684	0.365	0.354
953.000	2.380	953.000	3512091317.809	988.523	434.528	1423.051	0.305	0.658	-0.684	0.365	0.354
954.000	2.380	954.000	3512091319.311	1282.584	314.846	1597.430	0.197	0.658	-0.103	0.365	0.354
955.000	2.345	955.000	3512091320.811	1276.679	304.880	1581.559	0.193	0.658	-0.103	0.365	0.354
956.000	2.345	956.000	3512091322.310	1496.725	245.680	1742.406	0.141	0.658	-0.103	-0.452	0.354
957.000	2.759	957.000	3512091323.810	1955.733	691.358	2647.091	0.261	0.658	-0.103	-0.452	0.354
958.000	2.759	958.000	3512091325.311	2380.198	196.544	2576.742	0.076	0.658	-0.103	-0.452	0.472
959.000	2.261	959.000	3512091326.812	1648.174	1151.342	2799.517	0.411	0.658	-0.103	-0.452	0.472
960.000	2.261	960.000	3512091328.310	2353.202	467.977	2821.179	0.166	-0.963	-0.103	-0.452	0.472
961.000	1.357	961.000	3512091329.809	1051.215	336.256	1387.472	0.242	-0.963	-0.103	-0.452	0.472
962.000	1.357	962.000	3512091331.311	1334.754	96.891	1431.645	0.068	-0.963	-0.461	-0.452	0.472
963.000	0.923	963.000	3512091332.810	1229.393	532.011	1761.404	0.302	-0.963	-0.461	-0.452	0.472
964.000	0.923	964.000	3512091334.311	1474.836	224.566	1699.402	0.132	-0.963	-0.461	-1.645	0.472
965.000	2.635	965.000	3512091335.811	1913.730	606.110	2519.840	0.241	-0.963	-0.461	-1.645	0.472
966.000	2.635	966.000	3512091337.312	2117.305	559.243	2676.548	0.209	-0.963	-0.461	-1.645	-2.183
967.000	4.919	967.000	3512091338.812	2542.436	461.168	3003.604	0.154	-0.963	-0.461	-1.645	-2.183
968.000	4.919	968.000	3512091340.311	1901.210	886.521	2787.730	0.318	-1.554	-0.461	-1.645	-2.183
969.000	3.266	969.000	3512091341.821	1233.833	240.944	1474.777	0.163	-1.554	-0.461	-1.645	-2.183
970.000	3.266	970.000	3512091343.321	933.023	431.075	1364.098	0.316	-1.554	-1.511	-1.645	-2.183
971.000	1.647	971.000	3512091344.811	1341.103	319.483	1660.586	0.192	-1.554	-1.511	-1.645	-2.183
972.000	1.647	972.000	3512091346.310	1282.495	453.670	1736.165	0.261	-1.554	-1.511	-0.281	-2.183
973.000	1.990	973.000	3512091347.811	2301.121	180.659	2481.780	0.073	-1.554	-1.511	-0.281	-2.183
974.000	1.990	974.000	3512091349.312	1893.662	740.494	2634.156	0.281	-1.554	-1.511	-0.281	1.463
975.000	0.526	975.000	3512091350.811	2022.644	602.065	2624.708	0.229	-1.554	-1.511	-0.281	1.463
976.000	0.526	976.000	3512091352.309	2363.369	425.056	2788.426	0.152	1.358	-1.511	-0.281	1.463
977.000	1.859	977.000	3512091353.811	1236.808	238.576	1475.384	0.162	1.358	-1.511	-0.281	1.463
978.000	1.859	978.000	3512091355.311	1254.434	161.517	1415.952	0.114	1.358	0.613	-0.281	1.463
979.000	2.381	979.000	3512091356.812	1465.379	325.896	1791.275	0.182	1.358	0.613	-0.281	1.463
980.000	2.381	980.000	3512091358.311	1492.330	362.502	1854.831	0.195	1.358	0.613	1.853	1.463
981.000	0.457	981.000	3512091359.822	1818.404	722.241	2540.645	0.284	1.358	0.613	1.853	1.463
982.000	0.457	982.000	3512091361.312	2040.848	546.121	2586.969	0.211	1.358	0.613	1.853	-0.685
983.000	1.207	983.000	3512091362.811	2512.288	390.720	2903.008	0.135	1.358	0.613	1.853	-0.685
984.000	1.207	984.000	3512091364.320	2135.420	659.982	2795.402	0.236	-0.424	0.613	1.853	-0.685
985.000	0.760	985.000	3512091365.810	1320.013	207.496	1527.509	0.136	-0.424	0.613	1.853	-0.685
986.000	0.760	986.000	3512091367.311	1209.057	214.502	1423.559	0.151	-0.424	0.120	1.853	-0.685
987.000	0.847	987.000	3512091368.811	1622.111	130.832	1752.943	0.075	-0.424	0.120	1.853	-0.685
988.000	0.847	988.000	3512091370.321	1417.516	237.688	1655.204	0.144	-0.424	0.120	-0.651	-0.685
989.000	1.567	989.000	3512091371.812	2078.188	551.745	2629.933	0.210	-0.424	0.120	-0.651	-0.685
990.000	1.567	990.000	3512091373.312	2011.899	619.726	2631.625	0.235	-0.424	0.120	-0.651	0.903
991.000	0.661	991.000	3512091374.812	2420.957	545.627	2966.584	0.184	-0.424	0.120	-0.651	0.903
992.000	0.661	992.000	3512091376.322	1913.287	796.537	2709.823	0.294	0.132	0.120	-0.651	0.903
993.000	0.785	993.000	3512091377.822	1182.862	192.006	1374.867	0.140	0.132	0.120	-0.651	0.903
994.000	0.785	994.000	3512091379.311	1130.603	304.584	1435.187	0.212	0.132	0.614	-0.651	0.903
995.000	1.336	995.000	3512091380.822	1275.791	399.107	1674.898	0.238	0.132	0.614	-0.651	0.903
996.000	1.336	996.000	3512091382.311	1504.007	280.510	1784.517	0.157	0.132	0.614	0.229	0.903
997.000	1.145	997.000	3512091383.811	1979.132	532.406	2511.538	0.212	0.132	0.614	0.229	0.903
998.000	1.145	998.000	3512091385.312	2315.329	381.150	2696.479	0.141	0.132	0.614	0.229	0.979
999.000	0.144	999.000	3512091386.811	2051.504	826.827	2878.331	0.287	0.132	0.614	0.229	0.979
1000.000	0.144	1000.000	3512091388.310	2518.992	336.158	2855.150	0.118	0.646	0.614	0.229	0.979
1001.000	0.808	1001.000	3512091389.812	954.201	391.115	1345.317	0.291	0.646	0.614	0.229	0.979
1002.000	0.808	1002.000	3512091391.312	1380.575	185.691	1566.265	0.119	0.646	-0.721	0.229	0.979
1003.000	0.027	1003.000	3512091392.812	1467.555	353.523	1821.078	0.194	0.646	-0.721	0.229	0.979
1004.000	0.027	1004.000	3512091394.312	1342.746	408.974	1751.720	0.233	0.646	-0.721	-0.628	0.979
1005.000	0.788	1005.000	3512091395.812	2272.927	264.723	2537.650	0.104	0.646	-0.721	-0.628	0.979
1006.000	0.788	1006.000	3512091397.313	2064.557	364.179	2428.736	0.150	0.646	-0.721	-0.628	-1.508
1007.000	2.378	1007.000	3512091398.822	2201.532	479.422	2680.954	0.179	0.646	-0.721	-0.628	-1.508
1008.000	2.378	1008.000	3512091400.322	1999.955	681.195	2681.151	0.254	-1.532	-0.721	-0.628	-1.508
1009.000	0.776	1009.000	3512091401.811	1178.865	145.237	1324.103	0.110	-1.532	-0.721	-0.628	-1.508
1010.000	0.776	1010.000	3512091403.321	1161.017	327.672	1488.689	0.220	-1.532	0.350	-0.628	-1.508
1011.000	1.051	1011.000	3512091404.821	1551.249	288.699	1839.948	0.157	-1.532	0.350	-0.628	-1.508
1012.000	1.051	1012.000	3512091406.313	1507.648	207.102	1714.749	0.121	-1.532	0.350	0.406	-1.508
1013.000	0.672	1013.000	3512091407.813	2174.625	429.299	2603.924	0.165	-1.532	0.350	0.406	-1.508
1014.000	0.672	1014.000	3512091409.323	2010.967	652.385	2663.351	0.245	-1.532	0.350	0.406	0.669
1015.000	0.029	1015.000	3512091410.812	2137.862	677.742	2815.604	0.241	-1.532	0.350	0.406	0.669
1016.000	0.029	1016.000	3512091412.321	2392.585	486.526	2879.111	0.169	0.982	0.350	0.406	0.669
1017.000	0.908	1017.000	3512091413.822	1163.148	260.184	1423.332	0.183	0.982	0.350	0.406	0.669
1018.000	0.908	1018.000	3512091415.311	1179.088	155.795	1334.882	0.117	0.982	-0.321	0.406	0.669
1019.000	0.524	1019.000	3512091416.813	1482.340	264.526	1746.865	0.151	0.982	-0.321	0.406	0.669
1020.000	0.524	1020.000	3512091418.322	1536.908	188.454	1725.361	0.109	0.982	-0.321	0.712	0.669
1021.000	-0.209	1021.000	3512091419.822	1928.827	786.670	2715.497	0.290	0.982	-0.321	0.712	0.669
1022.000	-0.209	1022.000	3512091421.313	2536.485	31.179	2567.664	0.012	0.982	-0.321	0.712	-0.638
1023.000	0.430	1023.000	3512091422.822	2290.287	456.136	2746.424	0.166	0.982	-0.321	0.712	-0.638
1024.000	0.430	1024.000	3512091424.323	2316.439	264.230	2580.669	0.102	-0.588	-0.321	0.712	-0.638
1025.000	-0.174	1025.000	3512091425.823	1145.344	223.776	1369.120	0.163	-0.588	-0.321	0.712	-0.638
1026.000	-0.174	1026.000	3512091427.322	1221.801	209.568	1431.369	0.146	-0.588	-0.375	0.712	-0.638
1027.000	-0.619	1027.000	3512091428.813	1449.883	306.656	1756.540	0.175	-0.588	-0.375	0.712	-0.638
1028.000	-0.619	1028.000	3512091430.312	1419.780	412.624	1832.405	0.225	-0.588	-0.375	-2.469	-0.638
1029.000	1.984	1029.000	3512091431.813	2285.715	358.950	2644.664	0.136	-0.588	-0.375	-2.469	-0.638
1030.000	1.984	1030.000	3512091433.312	1737.729	869.353	2607.081	0.333	-0.588	-0.375	-2.469	-0.567
1031.000	2.552	1031.000	3512091434.812	2313.331	488.992	2802.323	0.174	-0.588	-0.375	-2.469	-0.567
1032.000	2.552	1032.000	3512091436.322	1997.736	766.049	2763.784	0.277	-0.152	-0.375	-2.469	-0.567
1033.000	2.322	1033.000	3512091437.822	1188.145	183.323	1371.468	0.134	-0.152	-0.375	-2.469	-0.567
1034.000	2.322	1034.000	3512091439.321	1211.011	261.566	1472.577	0.178	-0.152	0.450	-2.469	-0.567
1035.000	2.676	1035.000	3512091440.822	1337.018	300.638	1637.656	0.184	-0.152	0.450	-2.469	-0.567
1036.000	2.676	1036.000	3512091442.323	1456.233	340.104	1796.337	0.189	-0.152	0.450	1.759	-0.567
1037.000	0.975	1037.000	3512091443.823	1801.221	668.369	2469.589	0.271	-0.152	0.450	1.759	-0.567
1038.000	0.975	1038.000	3512091445.323	2136.486	508.528	2645.014	0.192	-0.152	0.450	1.759	0.913
1039.000	0.113	1039.000	3512091446.823	1597.824	996.140	2593.964	0.384	-0.152	0.450	1.759	0.913
1040.000	0.113	1040.000	3512091448.322	2373.316	455.446	2828.762	0.161	0.391	0.450	1.759	0.913
1041.000	0.502	1041.000	3512091449.821	1038.339	357.371	1395.710	0.256	0.391	0.450	1.759	0.913
1042.000	0.502	1042.000	3512091451.322	1306.960	257.422	1564.381	0.165	0.391	0.051	1.759	0.913
1043.000	0.481	1043.000	3512091452.822	1428.927	350.070	1778.996	0.197	0.391	0.051	1.759	0.913
1044.000	0.481	1044.000	3512091454.322	1602.398	307.248	1909.646	0.161	0.391	0.051	-0.697	0.913
1045.000	1.202	1045.000	3512091455.822	2122.944	557.665	2680.608	0.208	0.391	0.051	-0.697	0.913
1046.000	1.202	1046.000	3512091457.322	2072.239	501.227	2573.466	0.195	0.391	0.051	-0.697	-1.984
1047.000	3.311	1047.000	3512091458.823	2254.457	345.235	2599.692	0.133	0.391	0.051	-0.697	-1.984
1048.000	3.311	1048.000	3512091460.313	1986.724	782.132	2768.856	0.282	-0.814	0.051	-0.697	-1.984
1049.000	2.423	1049.000	3512091461.823	1157.420	197.531	1354.951	0.146	-0.814	0.051	-0.697	-1.984
1050.000	2.423	1050.000	3512091463.323	1151.959	329.547	1481.506	0.222	-0.814	-0.319	-0.697	-1.984
1051.000	2.041	1051.000	3512091464.823	1469.952	209.470	1679.422	0.125	-0.814	-0.319	-0.697	-1.984
1052.000	2.041	1052.000	3512091466.322	1282.584	425.944	1708.528	0.249	-0.814	-0.319	-0.118	-1.984
1053.000	2.235	1053.000	3512091467.822	2022.822	499.155	2521.977	0.198	-0.814	-0.319	-0.118	-1.984
1054.000	2.235	1054.000	3512091469.323	2079.165	649.326	2728.491	0.238	-0.814	-0.319	-0.118	1.332
1055.000	0.999	1055.000	3512091470.820	2327.095	503.793	2830.887	0.178	-0.814	-0.319	-0.118	1.332
1056.000	0.999	1056.000	3512091472.322	2045.865	592.001	2637.865	0.224	0.682	-0.319	-0.118	1.332
1057.000	1.617	1057.000	3512091473.822	1011.833	446.763	1458.596	0.306	0.682	-0.319	-0.118	1.332
1058.000	1.617	1058.000	3512091475.322	1278.677	223.382	1502.058	0.149	0.682	1.108	-0.118	1.332
1059.000	2.678	1059.000	3512091476.823	1495.704	285.344	1781.049	0.160	0.682	1.108	-0.118	1.332
1060.000	2.678	1060.000	3512091478.323	1485.181	324.515	1809.696	0.179	0.682	1.108	0.356	1.332
1061.000	2.324	1061.000	3512091479.823	1997.602	373.454	2371.056	0.158	0.682	1.108	0.356	1.332
1062.000	2.324	1062.000	3512091481.324	2125.252	296.296	2421.549	0.122	0.682	1.108	0.356	0.413
1063.000	2.061	1063.000	3512091482.824	1948.984	775.521	2724.505	0.285	0.682	1.108	0.356	0.413
1064.000	2.061	1064.000	3512091484.323	2189.943	610.649	2800.592	0.218	-1.402	1.108	0.356	0.413
1065.000	0.449	1065.000	3512091485.823	1338.839	162.504	1501.343	0.108	-1.402	1.108	0.356	0.413
1066.000	0.449	1066.000	3512091487.323	1214.519	282.286	1496.804	0.189	-1.402	0.170	0.356	0.413
1067.000	0.575	1067.000	3512091488.822	1299.456	417.755	1717.211	0.243	-1.402	0.170	0.356	0.413
1068.000	0.575	1068.000	3512091490.323	1492.774	164.675	1657.449	0.099	-1.402	0.170	-0.313	0.413
1069.000	1.005	1069.000	3512091491.822	1702.875	723.622	2426.497	0.298	-1.402	0.170	-0.313	0.413
1070.000	1.005	1070.000	3512091493.322	1992.230	676.361	2668.591	0.253	-1.402	0.170	-0.313	-0.593
1071.000	1.747	1071.000	3512091494.815	2508.647	436.600	2945.248	0.148	-1.402	0.170	-0.313	-0.593
1072.000	1.747	1072.000	3512091496.323	2362.038	730.430	3092.468	0.236	0.715	0.170	-0.313	-0.593
1073.000	2.319	1073.000	3512091497.823	1337.418	66.797	1404.215	0.048	0.715	0.170	-0.313	-0.593
1074.000	2.319	1074.000	3512091499.313	1159.463	308.728	1468.191	0.210	0.715	-1.280	-0.313	-0.593
1075.000	0.897	1075.000	3512091500.823	1426.573	200.096	1626.669	0.123	0.715	-1.280	-0.313	-0.593
1076.000	0.897	1076.000	3512091502.322	1266.556	436.107	1702.663	0.256	0.715	-1.280	-0.398	-0.593
1077.000	1.462	1077.000	3512091503.814	2139.283	441.238	2580.521	0.171	0.715	-1.280	-0.398	-0.593
1078.000	1.462	1078.000	3512091505.323	2287.135	456.432	2743.567	0.166	0.715	-1.280	-0.398	0.782
1079.000	0.813	1079.000	3512091506.823	2201.088	466.200	2667.288	0.175	0.715	-1.280	-0.398	0.782
1080.000	0.813	1080.000	3512091508.313	2268.886	346.024	2614.911	0.132	1.447	-1.280	-0.398	0.782
1081.000	2.131	1081.000	3512091509.822	1083.761	466.496	1550.257	0.301	1.447	-1.280	-0.398	0.782
1082.000	2.131	1082.000	3512091511.314	1306.160	165.168	1471.329	0.112	1.447	1.184	-0.398	0.782
1083.000	3.257	1083.000	3512091512.824	1638.006	230.486	1868.492	0.123	1.447	1.184	-0.398	0.782
1084.000	3.257	1084.000	3512091514.322	1422.977	324.219	1747.196	0.186	1.447	1.184	-0.041	0.782
1085.000	3.460	1085.000	3512091515.824	2227.861	440.646	2668.507	0.165	1.447	1.184	-0.041	0.782
1086.000	3.460	1086.000	3512091517.315	1836.119	717.307	2553.427	0.281	1.447	1.184	-0.041	-0.378
1087.000	3.960	1087.000	3512091518.823	1905.295	783.513	2688.808	0.291	1.447	1.184	-0.041	-0.378
1088.000	3.960	1088.000	3512091520.322	2255.300	496.491	2751.791	0.180	-1.678	1.184	-0.041	-0.378
1089.000	2.204	1089.000	3512091521.813	1316.639	66.600	1383.239	0.048	-1.678	1.184	-0.041	-0.378
1090.000	2.204	1090.000	3512091523.323	1028.260	371.480	1399.741	0.265	-1.678	0.553	-0.041	-0.378
1091.000	2.718	1091.000	3512091524.822	1261.760	438.475	1700.236	0.258	-1.678	0.553	-0.041	-0.378
1092.000	2.718	1092.000	3512091526.323	1474.969	357.075	1832.044	0.195	-1.678	0.553	1.030	-0.378
1093.000	1.780	1093.000	3512091527.815	1801.754	617.851	2419.605	0.255	-1.678	0.553	1.030	-0.378
1094.000	1.780	1094.000	3512091529.315	1595.116	796.931	2392.047	0.333	-1.678	0.553	1.030	-0.987
1095.000	2.941	1095.000	3512091530.824	2558.331	352.536	2910.867	0.121	-1.678	0.553	1.030	-0.987
1096.000	2.941	1096.000	3512091532.323	1696.215	964.566	2660.781	0.363	1.933	0.553	1.030	-0.987
1097.000	4.800	1097.000	3512091533.823	1362.504	93.339	1455.843	0.064	1.933	0.553	1.030	-0.987
1098.000	4.800	1098.000	3512091535.315	1137.796	539.017	1676.812	0.321	1.933	-0.560	1.030	-0.987
1099.000	4.142	1099.000	3512091536.822	1509.024	233.840	1742.865	0.134	1.933	-0.560	1.030	-0.987
1100.000	4.142	1100.000	3512091538.322	1480.386	225.750	1706.136	0.132	1.933	-0.560	0.692	-0.987
1101.000	3.513	1101.000	3512091539.822	2247.441	235.814	2483.255	0.095	1.933	-0.560	0.692	-0.987
1102.000	3.513	1102.000	3512091541.315	2041.958	664.225	2706.183	0.245	1.933	-0.560	0.692	2.148
1103.000	1.385	1103.000	3512091542.823	2434.765	491.755	2926.520	0.168	1.933	-0.560	0.692	2.148
1104.000	1.385	1104.000	3512091544.314	2129.737	722.537	2852.273	0.253	2.289	-0.560	0.692	2.148
1105.000	3.736	1105.000	3512091545.823	1104.007	352.142	1456.149	0.242	2.289	-0.560	0.692	2.148
1106.000	3.736	1106.000	3512091547.321	1347.275	117.907	1465.182	0.080	2.289	-0.016	0.692	2.148
1107.000	3.644	1107.000	3512091548.816	1620.202	25.061	1645.263	0.015	2.289	-0.016	0.692	2.148
1108.000	3.644	1108.000	3512091550.323	1498.235	498.070	1996.305	0.249	2.289	-0.016	1.339	2.148
1109.000	2.323	1109.000	3512091551.824	2107.181	516.027	2623.208	0.197	2.289	-0.016	1.339	2.148
1110.000	2.323	1110.000	3512091553.315	2179.065	388.747	2567.812	0.151	2.289	-0.016	1.339	0.759
1111.000	1.564	1111.000	3512091554.824	1971.229	714.742	2685.971	0.266	2.289	-0.016	1.339	0.759
1112.000	1.564	1112.000	3512091556.323	2324.786	350.168	2674.955	0.131	-1.435	-0.016	1.339	0.759
1113.000	0.085	1113.000	3512091557.823	1240.981	170.693	1411.675	0.121	-1.435	-0.016	1.339	0.759
1114.000	0.085	1114.000	3512091559.323	1441.714	174.838	1616.552	0.108	-1.435	2.084	1.339	0.759
1115.000	2.195	1115.000	3512091560.823	1433.056	425.056	1858.112	0.229	-1.435	2.084	1.339	0.759
1116.000	2.195	1116.000	3512091562.323	1590.942	223.480	1814.423	0.123	-1.435	2.084	-0.403	0.759
1117.000	2.621	1117.000	3512091563.824	2014.519	651.595	2666.114	0.244	-1.435	2.084	-0.403	0.759
1118.000	2.621	1118.000	3512091565.324	2016.783	548.291	2565.074	0.214	-1.435	2.084	-0.403	-1.203
1119.000	3.904	1119.000	3512091566.824	2647.797	433.344	3081.141	0.141	-1.435	2.084	-0.403	-1.203
1120.000	3.904	1120.000	3512091568.322	2004.040	816.566	2820.606	0.290	-0.114	2.084	-0.403	-1.203
1121.000	3.780	1121.000	3512091569.823	1279.343	164.083	1443.426	0.114	-0.114	2.084	-0.403	-1.203
1122.000	3.780	1122.000	3512091571.324	1302.520	105.179	1407.698	0.075	-0.114	-0.939	-0.403	-1.203
1123.000	2.841	1123.000	3512091572.824	1445.133	270.544	1715.677	0.158	-0.114	-0.939	-0.403	-1.203
1124.000	2.841	1124.000	3512091574.324	1272.106	396.838	1668.944	0.238	-0.114	-0.939	-0.273	-1.203
1125.000	3.070	1125.000	3512091575.823	2377.445	446.862	2824.306	0.158	-0.114	-0.939	-0.273	-1.203
1126.000	3.070	1126.000	3512091577.324	2058.120	553.323	2611.443	0.212	-0.114	-0.939	-0.273	1.324
1127.000	1.656	1127.000	3512091578.823	2269.286	585.390	2854.676	0.205	-0.114	-0.939	-0.273	1.324
1136.000	1.044	1136.000	3512091592.323	2198.646	587.265	2785.910	0.211	0.825	0.712	0.477	0.794
1137.000	1.974	1137.000	3512091593.823	1593.118	213.910	1807.028	0.118	0.825	0.712	0.477	0.794
1138.000	1.974	1138.000	3512091595.323	1326.274	190.328	1516.602	0.125	0.825	-0.014	0.477	0.794
1139.000	2.050	1139.000	3512091596.823	1449.440	328.363	1777.803	0.185	0.825	-0.014	0.477	0.794
1140.000	2.050	1140.000	3512091598.323	1556.488	265.414	1821.902	0.146	0.825	-0.014	-0.984	0.794
1141.000	3.082	1141.000	3512091599.825	2441.070	234.038	2675.107	0.087	0.825	-0.014	-0.984	0.794
1142.000	3.082	1142.000	3512091601.324	1853.613	733.291	2586.904	0.283	0.825	-0.014	-0.984	0.170
1143.000	2.800	1143.000	3512091602.825	2255.656	655.542	2911.198	0.225	0.825	-0.014	-0.984	0.170
1144.000	2.800	1144.000	3512091604.324	2696.858	340.006	3036.864	0.112	0.063	-0.014	-0.984	0.170
1145.000	2.914	1145.000	3512091605.824	1295.904	233.840	1529.744	0.153	0.063	-0.014	-0.984	0.170
1146.000	2.914	1146.000	3512091607.323	1175.225	262.750	1437.974	0.183	0.063	-0.347	-0.984	0.170
1147.000	2.642	1147.000	3512091608.823	1480.786	439.462	1920.248	0.229	0.063	-0.347	-0.984	0.170
1148.000	2.642	1148.000	3512091610.323	1538.151	365.659	1903.810	0.192	0.063	-0.347	1.743	0.170
1149.000	0.832	1149.000	3512091611.822	1910.046	651.398	2561.444	0.254	0.063	-0.347	1.743	0.170
1150.000	0.832	1150.000	3512091613.324	2022.377	509.417	2531.794	0.201	0.063	-0.347	1.743	-1.007
1151.000	1.815	1151.000	3512091614.824	2329.671	871.030	3200.701	0.272	0.063	-0.347	1.743	-1.007
1152.000	1.815	1152.000	3512091616.324	2455.411	415.091	2870.502	0.145	0.266	-0.347	1.743	-1.007
1153.000	2.169	1153.000	3512091617.824	1155.511	320.864	1476.375	0.217	0.266	-0.347	1.743	-1.007
1154.000	2.169	1154.000	3512091619.324	1287.113	165.168	1452.281	0.114	0.266	-0.327	1.743	-1.007
1155.000	1.875	1155.000	3512091620.823	1745.765	276.958	2022.723	0.137	0.266	-0.327	1.743	-1.007
1156.000	1.875	1156.000	3512091622.324	1526.562	241.438	1768.000	0.137	0.266	-0.327	-0.472	-1.007
1157.000	2.310	1157.000	3512091623.824	2044.755	547.502	2592.257	0.211	0.266	-0.327	-0.472	-1.007
1158.000	2.310	1158.000	3512091625.324	2006.704	515.238	2521.942	0.204	0.266	-0.327	-0.472	-1.135
1159.000	3.524	1159.000	3512091626.824	2396.314	225.158	2621.472	0.086	0.266	-0.327	-0.472	-1.135
1160.000	3.524	1160.000	3512091628.323	2319.369	596.243	2915.613	0.205	-0.922	-0.327	-0.472	-1.135
1161.000	2.644	1161.000	3512091629.824	1302.653	306.360	1609.013	0.190	-0.922	-0.327	-0.472	-1.135
1162.000	2.644	1162.000	3512091631.324	1276.768	127.872	1404.640	0.091	-0.922	-0.003	-0.472	-1.135
1163.000	2.715	1163.000	3512091632.823	1612.654	316.227	1928.881	0.164	-0.922	-0.003	-0.472	-1.135
1164.000	2.715	1164.000	3512091634.325	1433.899	494.320	1928.220	0.256	-0.922	-0.003	-0.061	-1.135
1165.000	2.706	1165.000	3512091635.825	2109.357	414.006	2523.363	0.164	-0.922	-0.003	-0.061	-1.135
1166.000	2.706	1166.000	3512091637.325	2146.742	516.521	2663.262	0.194	-0.922	-0.003	-0.061	1.055
1167.000	1.608	1167.000	3512091638.825	2449.417	358.752	2808.169	0.128	-0.922	-0.003	-0.061	1.055
1168.000	1.608	1168.000	3512091640.325	2436.941	583.219	3020.160	0.193	-0.884	-0.003	-0.061	1.055
1169.000	0.691	1169.000	3512091641.825	1502.853	167.635	1670.488	0.100	-0.884	-0.003	-0.061	1.055
1170.000	0.691	1170.000	3512091643.324	1179.487	234.630	1414.117	0.166	-0.884	0.822	-0.061	1.055
1171.000	1.618	1171.000	3512091644.824	1497.436	303.400	1800.836	0.168	-0.884	0.822	-0.061	1.055
1172.000	1.618	1172.000	3512091646.324	1664.602	284.456	1949.058	0.146	-0.884	0.822	0.266	1.055
1173.000	1.279	1173.000	3512091647.823	2265.912	537.043	2802.955	0.192	-0.884	0.822	0.266	1.055
1174.000	1.279	1174.000	3512091649.324	2029.792	490.867	2520.659	0.195	-0.884	0.822	0.266	0.581
1175.000	0.653	1175.000	3512091650.825	2493.373	464.030	2957.403	0.157	-0.884	0.822	0.266	0.581
1176.000	0.653	1176.000	3512091652.324	2241.092	665.014	2906.106	0.229	0.583	0.822	0.266	0.581
1177.000	1.306	1177.000	3512091653.823	1501.787	74.197	1575.984	0.047	0.583	0.822	0.266	0.581
1178.000	1.306	1178.000	3512091655.324	1025.375	334.480	1359.855	0.246	0.583	-0.200	0.266	0.581
1179.000	1.226	1179.000	3512091656.825	1513.420	290.080	1803.500	0.161	0.583	-0.200	0.266	0.581
1180.000	1.226	1180.000	3512091658.325	1490.199	315.635	1805.834	0.175	0.583	-0.200	0.028	0.581
1181.000	1.154	1181.000	3512091659.825	2189.188	344.742	2533.930	0.136	0.583	-0.200	0.028	0.581
1182.000	1.154	1182.000	3512091661.324	2039.383	671.230	2710.613	0.248	0.583	-0.200	0.028	0.640
1183.000	0.401	1183.000	3512091662.824	2660.095	388.747	3048.842	0.128	0.583	-0.200	0.028	0.640
1184.000	0.401	1184.000	3512091664.323	2265.468	596.342	2861.810	0.208	1.769	-0.200	0.028	0.640
1185.000	2.287	1185.000	3512091665.823	1410.545	371.974	1782.519	0.209	1.769	-0.200	0.028	0.640
1186.000	2.287	1186.000	3512091667.324	1269.797	289.587	1559.384	0.186	1.769	0.124	0.028	0.640
1187.000	2.566	1187.000	3512091668.825	1532.556	373.256	1905.813	0.196	1.769	0.124	0.028	0.640
1188.000	2.566	1188.000	3512091670.325	1637.207	251.896	1889.104	0.133	1.769	0.124	0.993	0.640
1189.000	1.355	1189.000	3512091671.825	1859.385	667.382	2526.767	0.264	1.769	0.124	0.993	0.640
1190.000	1.355	1190.000	3512091673.325	2487.379	302.611	2789.990	0.108	1.769	0.124	0.993	0.719
1191.000	0.453	1191.000	3512091674.825	2139.150	706.355	2845.505	0.248	1.769	0.124	0.993	0.719
1192.000	0.453	1192.000	3512091676.323	2231.458	574.635	2806.093	0.205	-0.204	0.124	0.993	0.719
1193.000	0.395	1193.000	3512091677.824	1343.368	204.536	1547.904	0.132	-0.204	0.124	0.993	0.719
1194.000	0.395	1194.000	3512091679.323	1323.654	152.539	1476.193	0.103	-0.204	-0.556	0.993	0.719
1195.000	-0.046	1195.000	3512091680.824	1457.076	368.126	1825.202	0.202	-0.204	-0.556	0.993	0.719
1196.000	-0.046	1196.000	3512091682.323	1742.391	304.190	2046.581	0.149	-0.204	-0.556	-1.385	0.719
1197.000	1.260	1197.000	3512091683.824	2398.579	315.536	2714.116	0.116	-0.204	-0.556	-1.385	0.719
1198.000	1.260	1198.000	3512091685.317	2425.086	402.856	2827.942	0.142	-0.204	-0.556	-1.385	-0.387
1199.000	1.520	1199.000	3512091686.826	2321.589	616.174	2937.763	0.210	-0.204	-0.556	-1.385	-0.387
1200.000	1.520	1200.000	3512091688.324	2339.482	420.616	2760.099	0.152	-0.256	-0.556	-1.385	-0.387
1201.000	1.414	1201.000	3512091689.824	1360.994	72.224	1433.219	0.050	-0.256	-0.556	-1.385	-0.387
1202.000	1.414	1202.000	3512091691.325	1399.711	124.221	1523.933	0.082	-0.256	-0.472	-1.385	-0.387
1203.000	1.041	1203.000	3512091692.824	1345.721	453.768	1799.490	0.252	-0.256	-0.472	-1.385	-0.387
1204.000	1.041	1204.000	3512091694.325	1391.320	461.464	1852.784	0.249	-0.256	-0.472	0.233	-0.387
1205.000	0.676	1205.000	3512091695.824	2108.958	492.939	2601.897	0.189	-0.256	-0.472	0.233	-0.387
1206.000	0.676	1206.000	3512091697.324	1987.657	541.483	2529.140	0.214	-0.256	-0.472	0.233	-0.510
1207.000	0.977	1207.000	3512091698.824	2147.586	785.486	2933.072	0.268	-0.256	-0.472	0.233	-0.510
1216.000	0.605	1216.000	3512091712.324	2313.553	448.934	2762.486	0.163	0.523	-0.028	0.219	0.077
1217.000	1.295	1217.000	3512091713.824	1108.314	426.635	1534.949	0.278	0.523	-0.028	0.219	0.077
1218.000	1.295	1218.000	3512091715.323	1510.312	176.712	1687.024	0.105	0.523	0.422	0.219	0.077
1219.000	1.815	1219.000	3512091716.824	1571.584	254.955	1826.539	0.140	0.523	0.422	0.219	0.077
1220.000	1.815	1220.000	3512091718.324	1692.974	155.597	1848.571	0.084	0.523	0.422	-0.290	0.077
1221.000	1.969	1221.000	3512091719.824	2200.688	388.550	2589.238	0.150	0.523	0.422	-0.290	0.077
1222.000	1.969	1222.000	3512091721.325	2220.624	465.312	2685.936	0.173	0.523	0.422	-0.290	-1.346
1223.000	3.227	1223.000	3512091722.825	2268.176	706.947	2975.124	0.238	0.523	0.422	-0.290	-1.346
1224.000	3.227	1224.000	3512091724.325	2467.177	497.379	2964.557	0.168	-1.541	0.422	-0.290	-1.346
1225.000	1.826	1225.000	3512091725.824	1316.372	145.928	1462.300	0.100	-1.541	0.422	-0.290	-1.346
1226.000	1.826	1226.000	3512091727.325	1291.064	275.083	1566.147	0.176	-1.541	-0.493	-0.290	-1.346
1227.000	1.405	1227.000	3512091728.825	1662.471	241.635	1904.106	0.127	-1.541	-0.493	-0.290	-1.346
1228.000	1.405	1228.000	3512091730.325	1818.359	129.648	1948.007	0.067	-1.541	-0.493	0.206	-1.346
1229.000	1.030	1229.000	3512091731.824	2158.553	688.102	2846.655	0.242	-1.541	-0.493	0.206	-1.346
1230.000	1.030	1230.000	3512091733.324	2627.683	335.270	2962.953	0.113	-1.541	-0.493	0.206	-0.621
1231.000	1.552	1231.000	3512091734.825	2731.358	248.443	2979.801	0.083	-1.541	-0.493	0.206	-0.621
1232.000	1.552	1232.000	3512091736.324	2124.586	794.958	2919.544	0.272	0.675	-0.493	0.206	-0.621
1233.000	2.377	1233.000	3512091737.824	1319.392	374.440	1693.832	0.221	0.675	-0.493	0.206	-0.621
1242.000	1.138	1242.000	3512091751.325	1135.709	353.030	1488.739	0.237	-0.669	0.043	-1.144	1.681
1243.000	1.325	1243.000	3512091752.825	1683.694	160.925	1844.620	0.087	-0.669	0.043	-1.144	1.681
1244.000	1.325	1244.000	3512091754.325	1439.139	545.331	1984.470	0.275	-0.669	0.043	-0.460	1.681
1245.000	1.645	1245.000	3512091755.826	2385.037	427.622	2812.659	0.152	-0.669	0.043	-0.460	1.681
1246.000	1.645	1246.000	3512091757.326	1663.048	955.588	2618.636	0.365	-0.669	0.043	-0.460	0.286
1247.000	1.154	1247.000	3512091758.826	2334.155	722.537	3056.692	0.236	-0.669	0.043	-0.460	0.286
1248.000	1.154	1248.000	3512091760.325	2428.416	589.534	3017.950	0.195	0.247	0.043	-0.460	0.286
1249.000	1.596	1249.000	3512091761.825	1291.287	321.654	1612.940	0.199	0.247	0.043	-0.460	0.286
1250.000	1.596	1250.000	3512091763.324	1458.453	160.827	1619.280	0.099	0.247	1.669	-0.460	0.286
1251.000	3.447	1251.000	3512091764.824	1384.926	382.334	1767.260	0.216	0.247	1.669	-0.460	0.286
1252.000	3.447	1252.000	3512091766.325	1615.939	403.646	2019.585	0.200	0.247	1.669	1.894	0.286
1253.000	1.354	1253.000	3512091767.825	2069.664	687.806	2757.470	0.249	0.247	1.669	1.894	0.286
1254.000	1.354	1254.000	3512091769.325	2348.141	431.075	2779.216	0.155	0.247	1.669	1.894	-0.365
1255.000	1.468	1255.000	3512091770.824	1977.134	792.985	2770.119	0.286	0.247	1.669	1.894	-0.365
1256.000	1.468	1256.000	3512091772.325	2316.128	516.422	2832.550	0.182	-0.890	1.669	1.894	-0.365
1257.000	0.672	1257.000	3512091773.825	1290.354	237.392	1527.746	0.155	-0.890	1.669	1.894	-0.365
1258.000	0.672	1258.000	3512091775.325	1199.556	311.491	1511.047	0.206	-0.890	-0.147	1.894	-0.365
1259.000	0.684	1259.000	3512091776.825	1279.965	371.579	1651.544	0.225	-0.890	-0.147	1.894	-0.365
1260.000	0.684	1260.000	3512091778.326	1696.437	76.664	1773.101	0.043	-0.890	-0.147	-0.839	-0.365
1261.000	1.387	1261.000	3512091779.825	1992.630	833.241	2825.871	0.295	-0.890	-0.147	-0.839	-0.365
1262.000	1.387	1262.000	3512091781.326	2253.835	721.945	2975.780	0.243	-0.890	-0.147	-0.839	-0.925
1263.000	2.192	1263.000	3512091782.825	2639.938	323.035	2962.973	0.109	-0.890	-0.147	-0.839	-0.925
1264.000	2.192	1264.000	3512091784.325	2721.234	406.606	3127.840	0.130	0.452	-0.147	-0.839	-0.925
1265.000	2.856	1265.000	3512091785.824	1375.158	190.920	1566.078	0.122	0.452	-0.147	-0.839	-0.925
1266.000	2.856	1266.000	3512091787.325	1304.651	273.110	1577.760	0.173	0.452	-1.617	-0.839	-0.925
1267.000	1.355	1267.000	3512091788.825	1744.655	174.541	1919.197	0.091	0.452	-1.617	-0.839	-0.925
1268.000	1.355	1268.000	3512091790.325	1799.356	182.731	1982.087	0.092	0.452	-1.617	-0.465	-0.925
1269.000	1.764	1269.000	3512091791.826	2335.442	407.790	2743.232	0.149	0.452	-1.617	-0.465	-0.925
1270.000	1.764	1270.000	3512091793.325	2568.010	350.662	2918.671	0.120	0.452	-1.617	-0.465	0.187
1271.000	1.480	1271.000	3512091794.826	2140.126	856.427	2996.554	0.286	0.452	-1.617	-0.465	0.187
1272.000	1.480	1272.000	3512091796.326	2641.625	445.382	3087.007	0.144	0.455	-1.617	-0.465	0.187
1273.000	2.088	1273.000	3512091797.825	1154.490	334.283	1488.773	0.225	0.455	-1.617	-0.465	0.187
1282.000	2.785	1282.000	3512091811.325	1478.432	54.464	1532.896	0.036	-0.775	-0.639	-0.254	-1.259
1283.000	2.242	1283.000	3512091812.825	1483.938	298.566	1782.504	0.167	-0.775	-0.639	-0.254	-1.259
1284.000	2.242	1284.000	3512091814.326	1565.590	196.347	1761.937	0.111	-0.775	-0.639	-1.398	-1.259
1285.000	3.625	1285.000	3512091815.825	2041.381	631.171	2672.552	0.236	-0.775	-0.639	-1.398	-1.259
1286.000	3.625	1286.000	3512091817.326	2032.367	580.950	2613.317	0.222	-0.775	-0.639	-1.398	0.574
1287.000	2.979	1287.000	3512091818.825	2237.762	739.705	2977.467	0.248	-0.775	-0.639	-1.398	0.574
1288.000	2.979	1288.000	3512091820.325	2720.701	487.019	3207.720	0.152	-1.357	-0.639	-1.398	0.574
1289.000	1.634	1289.000	3512091821.825	1387.279	204.832	1592.111	0.129	-1.357	-0.639	-1.398	0.574
1290.000	1.634	1290.000	3512091823.325	1172.960	318.990	1491.950	0.214	-1.357	-0.499	-1.398	0.574
1291.000	1.111	1291.000	3512091824.825	1509.779	334.283	1844.062	0.181	-1.357	-0.499	-1.398	0.574
1292.000	1.111	1292.000	3512091826.326	1443.623	280.510	1724.133	0.163	-1.357	-0.499	-0.123	0.574
1293.000	1.250	1293.000	3512091827.826	2089.599	502.905	2592.503	0.194	-1.357	-0.499	-0.123	0.574
1294.000	1.250	1294.000	3512091829.326	1885.625	819.822	2705.448	0.303	-1.357	-0.499	-0.123	-0.859
1295.000	2.121	1295.000	3512091830.826	2412.299	542.470	2954.769	0.184	-1.357	-0.499	-0.123	-0.859
1296.000	2.121	1296.000	3512091832.325	2323.765	626.633	2950.397	0.212	0.758	-0.499	-0.123	-0.859
1297.000	2.938	1297.000	3512091833.825	1055.212	417.755	1472.967	0.284	0.758	-0.499	-0.123	-0.859
1298.000	2.938	1298.000	3512091835.326	1188.500	227.328	1415.829	0.161	0.758	-0.165	-0.123	-0.859
1299.000	2.784	1299.000	3512091836.825	1673.970	373.750	2047.720	0.183	0.758	-0.165	-0.123	-0.859
1300.000	2.784	1300.000	3512091838.325	1569.542	314.648	1884.190	0.167	0.758	-0.165	0.970	-0.859
1301.000	1.737	1301.000	3512091839.825	2017.271	439.856	2457.128	0.179	0.758	-0.165	0.970	-0.859
1302.000	1.737	1302.000	3512091841.326	2059.496	463.536	2523.032	0.184	0.758	-0.165	0.970	0.256
1303.000	1.493	1303.000	3512091842.825	2380.863	477.251	2858.114	0.167	0.758	-0.165	0.970	0.256
1304.000	1.493	1304.000	3512091844.326	2874.548	251.502	3126.049	0.080	-1.095	-0.165	0.970	0.256
1305.000	0.364	1305.000	3512091845.826	1321.567	341.584	1663.152	0.205	-1.095	-0.165	0.970	0.256
1306.000	0.364	1306.000	3512091847.326	1185.215	349.478	1534.693	0.228	-1.095	-0.138	0.970	0.256
1307.000	0.195	1307.000	3512091848.826	1485.048	-32.461	1452.587	-0.022	-1.095	-0.138	0.970	0.256
1308.000	0.195	1308.000	3512091850.325	1539.616	262.947	1802.563	0.146	-1.095	-0.138	0.042	0.256
1309.000	0.156	1309.000	3512091851.826	2509.713	440.843	2950.556	0.149	-1.095	-0.138	0.042	0.256
1310.000	0.156	1310.000	3512091853.326	2198.024	571.182	2769.206	0.206	-1.095	-0.138	0.042	-0.770
1311.000	0.932	1311.000	3512091854.826	2274.525	495.504	2770.030	0.179	-1.095	-0.138	0.042	-0.770
1312.000	0.932	1312.000	3512091856.325	2062.204	731.219	2793.424	0.262	0.199	-0.138	0.042	-0.770
1313.000	1.096	1313.000	3512091857.825	1356.910	244.792	1601.702	0.153	0.199	-0.138	0.042	-0.770
1322.000	1.013	1322.000	3512091871.325	1402.153	61.568	1463.721	0.042	1.306	0.806	0.506	0.737
1323.000	1.822	1323.000	3512091872.825	1297.636	443.507	1741.143	0.255	1.306	0.806	0.506	0.737
1324.000	1.822	1324.000	3512091874.326	1644.578	342.275	1986.853	0.172	1.306	0.806	-0.879	0.737
1325.000	2.698	1325.000	3512091875.825	1935.354	573.352	2508.706	0.229	1.306	0.806	-0.879	0.737
1326.000	2.698	1326.000	3512091877.325	2336.419	321.654	2658.073	0.121	1.306	0.806	-0.879	0.680
1327.000	1.943	1327.000	3512091878.827	2409.901	501.128	2911.030	0.172	1.306	0.806	-0.879	0.680
1328.000	1.943	1328.000	3512091880.326	2388.989	403.843	2792.832	0.145	-1.973	0.806	-0.879	0.680
1329.000	-0.073	1329.000	3512091881.826	1337.240	336.848	1674.089	0.201	-1.973	0.806	-0.879	0.680
1330.000	-0.073	1330.000	3512091883.326	1117.904	359.344	1477.249	0.243	-1.973	-0.733	-0.879	0.680
1331.000	-0.827	1331.000	3512091884.826	1480.919	354.214	1835.133	0.193	-1.973	-0.733	-0.879	0.680
1332.000	-0.827	1332.000	3512091886.326	1518.792	224.368	1743.160	0.129	-1.973	-0.733	-0.957	0.680
1333.000	0.191	1333.000	3512091887.826	2436.718	211.936	2648.655	0.080	-1.973	-0.733	-0.957	0.680
1334.000	0.191	1334.000	3512091889.326	1902.675	577.102	2479.777	0.233	-1.973	-0.733	-0.957	-0.245
1335.000	0.401	1335.000	3512091890.825	2355.645	570.689	2926.333	0.195	-1.973	-0.733	-0.957	-0.245
1336.000	0.401	1336.000	3512091892.325	2349.339	516.323	2865.663	0.180	0.374	-0.733	-0.957	-0.245
1337.000	0.791	1337.000	3512091893.825	1128.028	300.539	1428.567	0.210	0.374	-0.733	-0.957	-0.245
1338.000	0.791	1338.000	3512091895.325	1233.478	276.859	1510.336	0.183	0.374	-0.572	-0.957	-0.245
1339.000	0.181	1339.000	3512091896.826	1684.271	221.803	1906.074	0.116	0.374	-0.572	-0.957	-0.245
1340.000	0.181	1340.000	3512091898.326	1498.723	215.192	1713.916	0.126	0.374	-0.572	1.358	-0.245
1341.000	-1.175	1341.000	3512091899.827	2119.258	662.745	2782.003	0.238	0.374	-0.572	1.358	-0.245
1342.000	-1.175	1342.000	3512091901.327	2341.702	397.726	2739.428	0.145	0.374	-0.572	1.358	-0.132
1343.000	-1.040	1343.000	3512091902.827	2009.857	796.339	2806.196	0.284	0.374	-0.572	1.358	-0.132
1344.000	-1.040	1344.000	3512091904.326	2361.727	526.979	2888.707	0.182	-0.241	-0.572	1.358	-0.132
1345.000	-1.303	1345.000	3512091905.826	1208.791	150.960	1359.751	0.111	-0.241	-0.572	1.358	-0.132
1346.000	-1.303	1346.000	3512091907.325	1144.899	307.742	1452.641	0.212	-0.241	0.082	1.358	-0.132
1347.000	-1.258	1347.000	3512091908.826	1499.789	365.462	1865.251	0.196	-0.241	0.082	1.358	-0.132
1348.000	-1.258	1348.000	3512091910.326	1543.745	228.118	1771.863	0.129	-0.241	0.082	-0.828	-0.132
1349.000	-0.335	1349.000	3512091911.826	1992.274	480.507	2472.781	0.194	-0.241	0.082	-0.828	-0.132
1350.000	-0.335	1350.000	3512091913.327	2274.214	443.704	2717.919	0.163	-0.241	0.082	-0.828	-0.902
1351.000	0.657	1351.000	3512091914.827	2095.904	684.649	2780.553	0.246	-0.241	0.082	-0.828	-0.902
1352.000	0.657	1352.000	3512091916.326	2417.094	366.448	2783.542	0.132	0.897	0.082	-0.828	-0.902
1353.000	1.483	1353.000	3512091917.826	1000.955	312.379	1313.333	0.238	0.897	0.082	-0.828	-0.902
1354.000	1.483	1354.000	3512091919.326	1281.563	153.624	1435.187	0.107	0.897	-0.598	-0.828	-0.902
1355.000	0.772	1355.000	3512091920.826	1547.874	318.891	1866.765	0.171	0.897	-0.598	-0.828	-0.902
1356.000	0.772	1356.000	3512091922.326	1221.934	324.515	1546.449	0.210	0.897	-0.598	-0.276	-0.902
1357.000	1.104	1357.000	3512091923.827	2070.285	678.729	2749.014	0.247	0.897	-0.598	-0.276	-0.902
1358.000	1.104	1358.000	3512091925.326	2279.099	506.654	2785.752	0.182	0.897	-0.598	-0.276	-1.019
1359.000	2.259	1359.000	3512091926.827	2499.367	465.904	2965.271	0.157	0.897	-0.598	-0.276	-1.019
1360.000	2.259	1360.000	3512091928.326	2505.317	385.491	2890.808	0.133	-1.164	-0.598	-0.276	-1.019
1361.000	0.967	1361.000	3512091929.826	1171.672	405.816	1577.489	0.257	-1.164	-0.598	-0.276	-1.019
1362.000	0.967	1362.000	3512091931.327	1277.434	196.939	1474.372	0.134	-1.164	0.347	-0.276	-1.019
1363.000	1.217	1363.000	3512091932.827	1232.589	381.150	1613.739	0.236	-1.164	0.347	-0.276	-1.019
1364.000	1.217	1364.000	3512091934.326	1456.943	284.160	1741.103	0.163	-1.164	0.347	-0.578	-1.019
1365.000	1.898	1365.000	3512091935.827	1938.373	597.723	2536.096	0.236	-1.164	0.347	-0.578	-1.019
1366.000	1.898	1366.000	3512091937.327	2145.721	599.697	2745.417	0.218	-1.164	0.347	-0.578	-0.211
1367.000	2.244	1367.000	3512091938.827	2020.424	894.118	2914.542	0.307	-1.164	0.347	-0.578	-0.211
1368.000	2.244	1368.000	3512091940.326	2285.537	576.214	2861.751	0.201	-1.100	0.347	-0.578	-0.211
1369.000	0.959	1369.000	3512091941.826	1310.911	145.533	1456.445	0.100	-1.100	0.347	-0.578	-0.211
1370.000	0.959	1370.000	3512091943.326	1197.247	348.984	1546.232	0.226	-1.100	-0.649	-0.578	-0.211
1371.000	0.164	1371.000	3512091944.826	1298.080	255.448	1553.528	0.164	-1.100	-0.649	-0.578	-0.211
1372.000	0.164	1372.000	3512091946.327	1315.751	503.102	1818.853	0.277	-1.100	-0.649	-0.153	-0.211
1373.000	0.450	1373.000	3512091947.826	2244.689	267.288	2511.977	0.106	-1.100	-0.649	-0.153	-0.211
1374.000	0.450	1374.000	3512091949.328	1894.638	610.155	2504.794	0.244	-1.100	-0.649	-0.153	-0.938
1375.000	1.590	1375.000	3512091950.828	2733.089	237.392	2970.481	0.080	-1.100	-0.649	-0.153	-0.938
1376.000	1.590	1376.000	3512091952.327	2058.608	878.628	2937.235	0.299	1.119	-0.649	-0.153	-0.938
1377.000	2.538	1377.000	3512091953.826	1146.365	362.008	1508.373	0.240	1.119	-0.649	-0.153	-0.938
1378.000	2.538	1378.000	3512091955.326	1179.532	131.720	1311.252	0.100	1.119	0.998	-0.153	-0.938
1379.000	3.452	1379.000	3512091956.826	1323.921	366.646	1690.566	0.217	1.119	0.998	-0.153	-0.938
1380.000	3.452	1380.000	3512091958.327	1503.297	174.048	1677.345	0.104	1.119	0.998	1.220	-0.938
1381.000	2.304	1381.000	3512091959.827	1996.271	446.368	2442.639	0.183	1.119	0.998	1.220	-0.938
1382.000	2.304	1382.000	3512091961.326	2404.751	328.067	2732.818	0.120	1.119	0.998	1.220	1.950
1383.000	0.409	1383.000	3512091962.826	2296.326	479.816	2776.142	0.173	1.119	0.998	1.220	1.950
1384.000	0.409	1384.000	3512091964.326	2387.524	460.576	2848.100	0.162	-1.241	0.998	1.220	1.950
1385.000	-1.005	1385.000	3512091965.827	1367.210	87.320	1454.531	0.060	-1.241	0.998	1.220	1.950
1386.000	-1.005	1386.000	3512091967.327	1108.492	360.726	1469.217	0.246	-1.241	-1.006	1.220	1.950
1387.000	-2.132	1387.000	3512091968.827	1468.265	372.171	1840.436	0.202	-1.241	-1.006	1.220	1.950
1388.000	-2.132	1388.000	3512091970.328	1284.582	293.632	1578.214	0.186	-1.241	-1.006	-0.558	1.950
1389.000	-1.454	1389.000	3512091971.828	1609.635	481.691	2091.326	0.230	-1.241	-1.006	-0.558	1.950
1390.000	-1.454	1390.000	3512091973.327	2145.055	560.427	2705.482	0.207	-1.241	-1.006	-0.558	-0.099
1391.000	-1.318	1391.000	3512091974.827	2341.169	428.115	2769.284	0.155	-1.241	-1.006	-0.558	-0.099
1392.000	-1.318	1392.000	3512091976.326	2502.475	257.520	2759.995	0.093	1.650	-1.006	-0.558	-0.099
1393.000	0.192	1393.000	3512091977.827	1255.189	182.139	1437.328	0.127	1.650	-1.006	-0.558	-0.099
1394.000	0.192	1394.000	3512091979.326	1224.420	274.984	1499.404	0.183	1.650	-0.144	-0.558	-0.099
1395.000	-0.089	1395.000	3512091980.826	1463.115	204.734	1667.848	0.123	1.650	-0.144	-0.558	-0.099
1396.000	-0.089	1396.000	3512091982.326	1569.896	271.235	1841.131	0.147	1.650	-0.144	-0.206	-0.099
1397.000	0.205	1397.000	3512091983.827	1979.709	473.601	2453.310	0.193	1.650	-0.144	-0.206	-0.099
1398.000	0.205	1398.000	3512091985.328	2350.760	257.520	2608.281	0.099	1.650	-0.144	-0.206	-0.545
1399.000	0.905	1399.000	3512091986.828	1944.500	749.374	2693.874	0.278	1.650	-0.144	-0.206	-0.545
1400.000	0.905	1400.000	3512091988.327	2608.325	293.534	2901.859	0.101	0.504	-0.144	-0.206	-0.545
1401.000	1.314	1401.000	3512091989.828	969.919	461.859	1431.778	0.323	0.504	-0.144	-0.206	-0.545
1402.000	1.314	1402.000	3512091991.327	1338.129	1.283	1339.411	0.001	0.504	0.219	-0.206	-0.545
1403.000	1.372	1403.000	3512091992.827	1328.228	391.806	1720.033	0.228	0.504	0.219	-0.206	-0.545
1404.000	1.372	1404.000	3512091994.327	1636.497	227.624	1864.121	0.122	0.504	0.219	-0.839	-0.545
1405.000	2.330	1405.000	3512091995.827	1978.333	646.070	2624.403	0.246	0.504	0.219	-0.839	-0.545
1406.000	2.330	1406.000	3512091997.327	2110.334	240.056	2350.390	0.102	0.504	0.219	-0.839	-1.575
1407.000	4.167	1407.000	3512091998.827	2538.839	240.056	2778.895	0.086	0.504	0.219	-0.839	-1.575
1408.000	4.167	1408.000	3512092000.326	2146.654	701.126	2847.780	0.246	-2.861	0.219	-0.839	-1.575
1409.000	1.041	1409.000	3512092001.827	1373.071	73.309	1446.381	0.051	-2.861	0.219	-0.839	-1.575
1410.000	1.041	1410.000	3512092003.327	1075.413	536.057	1611.470	0.333	-2.861	-0.940	-0.839	-1.575
1411.000	-0.095	1411.000	3512092004.827	1409.080	267.979	1677.059	0.160	-2.861	-0.940	-0.839	-1.575
1412.000	-0.095	1412.000	3512092006.328	1550.538	343.952	1894.491	0.182	-2.861	-0.940	-1.281	-1.575
1413.000	1.477	1413.000	3512092007.827	2477.389	247.654	2725.043	0.091	-2.861	-0.940	-1.281	-1.575
1414.000	1.477	1414.000	3512092009.327	1739.727	797.918	2537.645	0.314	-2.861	-0.940	-1.281	1.422
1415.000	0.252	1415.000	3512092010.828	2090.665	670.835	2761.500	0.243	-2.861	-0.940	-1.281	1.422
1416.000	0.252	1416.000	3512092012.327	2315.595	493.334	2808.929	0.176	2.508	-0.940	-1.281	1.422
1417.000	2.642	1417.000	3512092013.827	1025.153	345.531	1370.684	0.252	2.508	-0.940	-1.281	1.422
1418.000	2.642	1418.000	3512092015.327	1176.512	379.670	1556.182	0.244	2.508	0.194	-1.281	1.422
1419.000	2.634	1419.000	3512092016.827	1414.452	237.984	1652.437	0.144	2.508	0.194	-1.281	1.422
1420.000	2.634	1420.000	3512092018.328	1376.756	257.422	1634.178	0.158	2.508	0.194	1.989	1.422
1421.000	0.819	1421.000	3512092019.828	1826.840	594.073	2420.912	0.245	2.508	0.194	1.989	1.422
1422.000	0.819	1422.000	3512092021.328	2361.017	256.139	2617.156	0.098	2.508	0.194	1.989	-0.599
1423.000	1.621	1423.000	3512092022.828	2246.109	678.827	2924.937	0.232	2.508	0.194	1.989	-0.599
1424.000	1.621	1424.000	3512092024.328	2461.938	287.219	2749.157	0.104	-0.072	0.194	1.989	-0.599
1425.000	1.393	1425.000	3512092025.828	1055.744	476.955	1532.699	0.311	-0.072	0.194	1.989	-0.599
1426.000	1.393	1426.000	3512092027.327	1259.629	93.635	1353.264	0.069	-0.072	0.120	1.989	-0.599
1427.000	1.217	1427.000	3512092028.827	1627.306	224.862	1852.168	0.121	-0.072	0.120	1.989	-0.599
1428.000	1.217	1428.000	3512092030.327	1367.211	232.558	1599.768	0.145	-0.072	0.120	-1.312	-0.599
1429.000	2.761	1429.000	3512092031.828	2212.898	306.854	2519.752	0.122	-0.072	0.120	-1.312	-0.599
1430.000	2.761	1430.000	3512092033.328	1779.820	701.619	2481.439	0.283	-0.072	0.120	-1.312	-1.135
1431.000	4.181	1431.000	3512092034.828	2470.729	231.867	2702.596	0.086	-0.072	0.120	-1.312	-1.135
1432.000	4.181	1432.000	3512092036.328	1933.089	652.089	2585.177	0.252	-2.153	0.120	-1.312	-1.135
1433.000	1.724	1433.000	3512092037.828	1261.005	61.272	1322.278	0.046	-2.153	0.120	-1.312	-1.135
1434.000	1.724	1434.000	3512092039.328	1160.484	349.478	1509.962	0.231	-2.153	0.213	-1.312	-1.135
1435.000	1.636	1435.000	3512092040.828	1398.290	350.267	1748.557	0.200	-2.153	0.213	-1.312	-1.135
1436.000	1.636	1436.000	3512092042.328	1476.568	182.040	1658.608	0.110	-2.153	0.213	1.432	-1.135
1437.000	0.365	1437.000	3512092043.829	1986.547	624.462	2611.009	0.239	-2.153	0.213	1.432	-1.135
1438.000	0.365	1438.000	3512092045.327	2183.949	519.974	2703.923	0.192	-2.153	0.213	1.432	1.481
1439.000	-0.948	1439.000	3512092046.828	2753.380	24.371	2777.751	0.009	-2.153	0.213	1.432	1.481
1440.000	-0.948	1440.000	3512092048.327	2017.804	681.294	2699.098	0.252	1.647	0.213	1.432	1.481
1441.000	0.492	1441.000	3512092049.827	1180.375	167.142	1347.517	0.124	1.647	0.213	1.432	1.481
1442.000	0.492	1442.000	3512092051.327	1182.151	261.960	1444.111	0.181	1.647	-0.806	1.432	1.481
1443.000	-0.598	1443.000	3512092052.827	1567.099	189.638	1756.737	0.108	1.647	-0.806	1.432	1.481
1444.000	-0.598	1444.000	3512092054.329	1135.753	440.251	1576.004	0.279	1.647	-0.806	-0.417	1.481
1445.000	-0.057	1445.000	3512092055.829	2056.610	543.950	2600.560	0.209	1.647	-0.806	-0.417	1.481
1446.000	-0.057	1446.000	3512092057.329	1900.011	516.126	2416.137	0.214	1.647	-0.806	-0.417	2.167
1447.000	-2.123	1447.000	3512092058.829	1835.276	873.003	2708.279	0.322	1.647	-0.806	-0.417	2.167
1448.000	-2.123	1448.000	3512092060.328	2289.621	553.718	2843.339	0.195	0.510	-0.806	-0.417	2.167
1449.000	-1.736	1449.000	3512092061.827	1132.290	148.197	1280.487	0.116	0.510	-0.806	-0.417	2.167
1450.000	-1.736	1450.000	3512092063.328	1139.483	159.347	1298.829	0.123	0.510	1.525	-0.417	2.167
1451.000	-0.408	1451.000	3512092064.827	1412.854	227.131	1639.985	0.138	0.510	1.525	-0.417	2.167
1452.000	-0.408	1452.000	3512092066.328	1276.146	365.067	1641.213	0.222	0.510	1.525	0.040	2.167
1453.000	-0.325	1453.000	3512092067.828	1808.014	568.814	2376.828	0.239	0.510	1.525	0.040	2.167
1454.000	-0.325	1454.000	3512092069.328	1861.605	534.083	2395.688	0.223	0.510	1.525	0.040	-1.135
1455.000	0.934	1455.000	3512092070.828	2358.930	391.214	2750.144	0.142	0.510	1.525	0.040	-1.135
1456.000	0.934	1456.000	3512092072.328	2417.627	265.907	2683.534	0.099	0.062	1.525	0.040	-1.135
1457.000	0.831	1457.000	3512092073.828	1066.578	258.014	1324.591	0.195	0.062	1.525	0.040	-1.135
1458.000	0.831	1458.000	3512092075.328	1273.349	200.491	1473.840	0.136	0.062	0.747	0.040	-1.135
1459.000	1.429	1459.000	3512092076.828	1337.729	302.907	1640.636	0.185	0.062	0.747	0.040	-1.135
1460.000	1.429	1460.000	3512092078.329	1326.584	338.920	1665.505	0.203	0.062	0.747	-0.146	-1.135
1461.000	1.758	1461.000	3512092079.828	1778.310	700.929	2479.239	0.283	0.062	0.747	-0.146	-1.135
1462.000	1.758	1462.000	3512092081.328	1924.209	564.670	2488.879	0.227	0.062	0.747	-0.146	-0.384
1463.000	2.303	1463.000	3512092082.828	2269.331	603.150	2872.480	0.210	0.062	0.747	-0.146	-0.384
1464.000	2.303	1464.000	3512092084.327	2267.643	341.782	2609.425	0.131	-0.523	0.747	-0.146	-0.384
1465.000	1.633	1465.000	3512092085.827	1316.994	209.568	1526.562	0.137	-0.523	0.747	-0.146	-0.384
1466.000	1.633	1466.000	3512092087.327	1148.984	291.166	1440.150	0.202	-0.523	0.168	-0.146	-0.384
1467.000	1.663	1467.000	3512092088.829	1257.676	300.243	1557.919	0.193	-0.523	0.168	-0.146	-0.384
1468.000	1.663	1468.000	3512092090.328	1560.129	155.104	1715.233	0.090	-0.523	0.168	-0.497	-0.384
1469.000	2.383	1469.000	3512092091.828	1818.093	512.475	2330.568	0.220	-0.523	0.168	-0.497	-0.384
1470.000	2.383	1470.000	3512092093.329	1788.833	630.086	2418.919	0.260	-0.523	0.168	-0.497	-0.703
1471.000	3.251	1471.000	3512092094.829	2711.156	199.406	2910.561	0.069	-0.523	0.168	-0.497	-0.703
1472.000	3.251	1472.000	3512092096.328	2504.295	419.531	2923.826	0.143	0.577	0.168	-0.497	-0.703
1473.000	3.694	1473.000	3512092097.827	1115.951	313.859	1429.810	0.220	0.577	0.168	-0.497	-0.703
1474.000	3.694	1474.000	3512092099.328	1315.218	178.587	1493.805	0.120	0.577	-0.910	-0.497	-0.703
1475.000	2.600	1475.000	3512092100.828	1466.622	218.152	1684.774	0.129	0.577	-0.910	-0.497	-0.703
1476.000	2.600	1476.000	3512092102.328	1425.597	327.475	1753.072	0.187	0.577	-0.910	0.361	-0.703
1477.000	2.481	1477.000	3512092103.828	2013.320	572.859	2586.179	0.222	0.577	-0.910	0.361	-0.703
1478.000	2.481	1478.000	3512092105.328	2203.397	292.251	2495.648	0.117	0.577	-0.910	0.361	0.667
1479.000	1.991	1479.000	3512092106.829	2050.660	758.945	2809.605	0.270	0.577	-0.910	0.361	0.667
1480.000	1.991	1480.000	3512092108.329	2504.251	219.139	2723.390	0.080	-0.889	-0.910	0.361	0.667
1481.000	0.852	1481.000	3512092109.828	1168.520	288.206	1456.726	0.198	-0.889	-0.910	0.361	0.667
1482.000	0.852	1482.000	3512092111.329	1222.777	62.061	1284.839	0.048	-0.889	0.510	0.361	0.667
1483.000	1.156	1483.000	3512092112.829	1180.597	545.430	1726.027	0.316	-0.889	0.510	0.361	0.667
1484.000	1.156	1484.000	3512092114.328	1626.196	95.312	1721.508	0.055	-0.889	0.510	-0.929	0.667
1485.000	2.343	1485.000	3512092115.828	2055.056	529.051	2584.107	0.205	-0.889	0.510	-0.929	0.667
1486.000	2.343	1486.000	3512092117.329	2024.908	452.683	2477.591	0.183	-0.889	0.510	-0.929	-1.687
1487.000	4.339	1487.000	3512092118.829	2255.788	552.534	2808.322	0.197	-0.889	0.510	-0.929	-1.687
1488.000	4.339	1488.000	3512092120.328	2119.570	448.144	2567.714	0.175	-1.330	0.510	-0.929	-1.687
1489.000	2.778	1489.000	3512092121.828	985.637	411.736	1397.373	0.295	-1.330	0.510	-0.929	-1.687
1490.000	2.778	1490.000	3512092123.329	1129.804	315.142	1444.945	0.218	-1.330	-2.319	-0.929	-1.687
1491.000	0.163	1491.000	3512092124.829	1628.949	276.267	1905.216	0.145	-1.330	-2.319	-0.929	-1.687
1492.000	0.163	1492.000	3512092126.329	1372.583	320.568	1693.151	0.189	-1.330	-2.319	-0.196	-1.687
1493.000	0.593	1493.000	3512092127.829	2047.996	423.872	2471.869	0.171	-1.330	-2.319	-0.196	-1.687
1494.000	0.593	1494.000	3512092129.329	2016.739	526.387	2543.126	0.207	-1.330	-2.319	-0.196	-0.198
1495.000	1.115	1495.000	3512092130.829	2330.646	265.118	2595.764	0.102	-1.330	-2.319	-0.196	-0.198
1496.000	1.115	1496.000	3512092132.328	2116.461	607.984	2724.446	0.223	-0.681	-2.319	-0.196	-0.198
1497.000	0.142	1497.000	3512092133.828	1133.578	102.613	1236.191	0.083	-0.681	-2.319	-0.196	-0.198
1498.000	0.142	1498.000	3512092135.328	1123.499	182.238	1305.736	0.140	-0.681	0.394	-0.196	-0.198
1499.000	0.275	1499.000	3512092136.828	1483.006	240.944	1723.950	0.140	-0.681	0.394	-0.196	-0.198
1500.000	0.275	1500.000	3512092138.328	1450.594	147.112	1597.706	0.092	-0.681	0.394	0.316	-0.198
1501.000	0.253	1501.000	3512092139.828	2149.717	341.486	2491.203	0.137	-0.681	0.394	0.316	-0.198
1502.000	0.253	1502.000	3512092141.330	2283.849	407.790	2691.639	0.152	-0.681	0.394	0.316	1.077
1503.000	-0.541	1503.000	3512092142.830	2300.011	442.323	2742.334	0.161	-0.681	0.394	0.316	1.077
1504.000	-0.541	1504.000	3512092144.329	2386.236	580.851	2967.087	0.196	0.503	0.394	0.316	1.077
1505.000	-0.308	1505.000	3512092145.829	1192.807	370.888	1563.696	0.237	0.503	0.394	0.316	1.077
1506.000	-0.308	1506.000	3512092147.329	1179.531	40.552	1220.083	0.033	0.503	-0.424	0.316	1.077
1507.000	-1.031	1507.000	3512092148.828	1288.711	401.278	1689.989	0.237	0.503	-0.424	0.316	1.077
1508.000	-1.031	1508.000	3512092150.328	1480.075	409.072	1889.148	0.217	0.503	-0.424	0.128	1.077
1509.000	-0.898	1509.000	3512092151.828	1892.063	464.622	2356.685	0.197	0.503	-0.424	0.128	1.077
1510.000	-0.898	1510.000	3512092153.328	2300.899	252.192	2553.091	0.099	0.503	-0.424	0.128	0.307
1511.000	-0.968	1511.000	3512092154.828	2051.238	546.416	2597.654	0.210	0.503	-0.424	0.128	0.307
1512.000	-0.968	1512.000	3512092156.328	2434.810	462.747	2897.557	0.160	-1.814	-0.424	0.128	0.307
1513.000	-3.201	1513.000	3512092157.829	1346.298	42.131	1388.429	0.030	-1.814	-0.424	0.128	0.307
1514.000	-3.201	1514.000	3512092159.329	941.015	284.950	1225.964	0.232	-1.814	-0.186	0.128	0.307
1515.000	-3.678	1515.000	3512092160.829	1546.098	298.368	1844.467	0.162	-1.814	-0.186	0.128	0.307
1516.000	-3.678	1516.000	3512092162.329	1376.668	375.032	1751.700	0.214	-1.814	-0.186	-0.875	0.307
1517.000	-2.503	1517.000	3512092163.829	1887.979	504.680	2392.659	0.211	-1.814	-0.186	-0.875	0.307
1518.000	-2.503	1518.000	3512092165.329	1815.651	671.526	2487.177	0.270	-1.814	-0.186	-0.875	-0.451
1519.000	-1.837	1519.000	3512092166.829	2310.267	506.358	2816.625	0.180	-1.814	-0.186	-0.875	-0.451
1520.000	-1.837	1520.000	3512092168.328	2305.161	562.499	2867.660	0.196	1.798	-0.186	-0.875	-0.451
1521.000	-0.328	1521.000	3512092169.829	1091.264	190.427	1281.691	0.149	1.798	-0.186	-0.875	-0.451
1522.000	-0.328	1522.000	3512092171.328	999.489	461.464	1460.954	0.316	1.798	0.466	-0.875	-0.451
1523.000	-0.156	1523.000	3512092172.828	1615.052	191.808	1806.860	0.106	1.798	0.466	-0.875	-0.451
1524.000	-0.156	1524.000	3512092174.328	1404.196	299.947	1704.143	0.176	1.798	0.466	0.525	-0.451
1525.000	-0.425	1525.000	3512092175.830	2214.808	282.088	2496.896	0.113	1.798	0.466	0.525	-0.451
1526.000	-0.425	1526.000	3512092177.330	1786.036	570.096	2356.133	0.242	1.798	0.466	0.525	0.146
1527.000	-0.369	1527.000	3512092178.829	2271.329	368.027	2639.356	0.139	1.798	0.466	0.525	0.146
1528.000	-0.369	1528.000	3512092180.329	2300.721	553.225	2853.946	0.194	1.488	0.466	0.525	0.146
1529.000	0.952	1529.000	3512092181.829	1175.047	114.256	1289.303	0.089	1.488	0.466	0.525	0.146
1530.000	0.952	1530.000	3512092183.329	1117.904	302.118	1420.022	0.213	1.488	0.621	0.525	0.146
1531.000	1.334	1531.000	3512092184.829	1415.918	259.099	1675.017	0.155	1.488	0.621	0.525	0.146
1532.000	1.334	1532.000	3512092186.329	1233.700	347.208	1580.908	0.220	1.488	0.621	1.147	0.146
1533.000	0.386	1533.000	3512092187.830	1855.567	512.179	2367.746	0.216	1.488	0.621	1.147	0.146
1534.000	0.386	1534.000	3512092189.329	2043.246	611.241	2654.486	0.230	1.488	0.621	1.147	0.484
1535.000	0.035	1535.000	3512092190.829	2122.410	483.763	2606.174	0.186	1.488	0.621	1.147	0.484
1536.000	0.035	1536.000	3512092192.328	1910.401	730.923	2641.324	0.277	1.104	0.621	1.147	0.484
1537.000	0.973	1537.000	3512092193.829	1028.349	365.955	1394.304	0.262	1.104	0.621	1.147	0.484
1538.000	0.973	1538.000	3512092195.329	1363.303	69.856	1433.160	0.049	1.104	0.578	1.147	0.484
1539.000	1.285	1539.000	3512092196.829	1141.348	469.555	1610.903	0.291	1.104	0.578	1.147	0.484
1540.000	1.285	1540.000	3512092198.329	1502.764	298.368	1801.132	0.166	1.104	0.578	0.124	0.484
1541.000	1.418	1541.000	3512092199.829	1938.506	404.731	2343.237	0.173	1.104	0.578	0.124	0.484
1542.000	1.418	1542.000	3512092201.330	2317.194	265.414	2582.607	0.103	1.104	0.578	0.124	0.810
1543.000	0.795	1543.000	3512092202.829	1945.521	819.921	2765.442	0.296	1.104	0.578	0.124	0.810
1544.000	0.795	1544.000	3512092204.329	2625.774	191.216	2816.990	0.068	-1.901	0.578	0.124	0.810
1545.000	-1.306	1545.000	3512092205.829	1012.365	269.163	1281.528	0.210	-1.901	0.578	0.124	0.810
1546.000	-1.306	1546.000	3512092207.328	1326.718	113.368	1440.086	0.079	-1.901	-1.119	0.124	0.810
1547.000	-2.705	1547.000	3512092208.829	1415.163	342.078	1757.240	0.195	-1.901	-1.119	0.124	0.810
1548.000	-2.705	1548.000	3512092210.330	1263.359	346.715	1610.074	0.215	-1.901	-1.119	-0.622	0.810
1549.000	-1.813	1549.000	3512092211.830	1965.545	669.651	2635.197	0.254	-1.901	-1.119	-0.622	0.810
1550.000	-1.813	1550.000	3512092213.330	2260.140	236.899	2497.039	0.095	-1.901	-1.119	-0.622	-2.034
1551.000	0.511	1551.000	3512092214.830	2432.412	409.368	2841.780	0.144	-1.901	-1.119	-0.622	-2.034
1552.000	0.511	1552.000	3512092216.330	2188.745	510.699	2699.444	0.189	-1.168	-1.119	-0.622	-2.034
1553.000	-0.999	1553.000	3512092217.830	1307.404	246.174	1553.577	0.158	-1.168	-1.119	-0.622	-2.034
1554.000	-0.999	1554.000	3512092219.329	1150.982	226.243	1377.225	0.164	-1.168	0.184	-0.622	-2.034
1555.000	-1.087	1555.000	3512092220.829	1540.548	60.581	1601.129	0.038	-1.168	0.184	-0.622	-2.034
1556.000	-1.087	1556.000	3512092222.329	1460.406	59.989	1520.396	0.039	-1.168	0.184	-1.417	-2.034
1557.000	0.668	1557.000	3512092223.829	1854.456	540.102	2394.558	0.226	-1.168	0.184	-1.417	-2.034
1558.000	0.668	1558.000	3512092225.329	2089.599	534.281	2623.880	0.204	-1.168	0.184	-1.417	0.402
1559.000	0.522	1559.000	3512092226.830	1880.031	691.950	2571.981	0.269	-1.168	0.184	-1.417	0.402
1560.000	0.522	1560.000	3512092228.330	2463.226	307.742	2770.968	0.111	0.052	0.184	-1.417	0.402
1561.000	0.200	1561.000	3512092229.829	1191.831	235.024	1426.855	0.165	0.052	0.184	-1.417	0.402
1570.000	1.381	1570.000	3512092243.329	1083.317	333.888	1417.205	0.236	-0.450	-0.076	-0.195	-1.405
1571.000	1.011	1571.000	3512092244.829	1401.843	293.040	1694.883	0.173	-0.450	-0.076	-0.195	-1.405
1572.000	1.011	1572.000	3512092246.330	1476.701	170.200	1646.901	0.103	-0.450	-0.076	0.621	-1.405
1573.000	0.623	1573.000	3512092247.830	1964.036	539.707	2503.743	0.216	-0.450	-0.076	0.621	-1.405
1574.000	0.623	1574.000	3512092249.330	2063.492	508.035	2571.527	0.198	-0.450	-0.076	0.621	-2.454
1575.000	3.522	1575.000	3512092250.831	2743.656	222.296	2965.953	0.075	-0.450	-0.076	0.621	-2.454
1576.000	3.522	1576.000	3512092252.330	1701.188	1029.292	2730.479	0.377	0.490	-0.076	0.621	-2.454
1577.000	3.644	1577.000	3512092253.830	1116.750	285.048	1401.798	0.203	0.490	-0.076	0.621	-2.454
1578.000	3.644	1578.000	3512092255.330	1157.065	227.822	1384.887	0.165	0.490	-0.619	0.621	-2.454
1579.000	2.741	1579.000	3512092256.829	1560.085	105.771	1665.855	0.063	0.490	-0.619	0.621	-2.454
1580.000	2.741	1580.000	3512092258.330	1226.329	475.278	1701.607	0.279	0.490	-0.619	-0.160	-2.454
1581.000	3.238	1581.000	3512092259.830	1913.686	656.825	2570.511	0.256	0.490	-0.619	-0.160	-2.454
1582.000	3.238	1582.000	3512092261.329	2052.347	316.523	2368.870	0.134	0.490	-0.619	-0.160	2.687
1583.000	0.845	1583.000	3512092262.831	1968.609	802.259	2770.868	0.290	0.490	-0.619	-0.160	2.687
1584.000	0.845	1584.000	3512092264.330	2052.125	865.998	2918.124	0.297	-0.346	-0.619	-0.160	2.687
1585.000	0.105	1585.000	3512092265.830	1249.017	274.688	1523.706	0.180	-0.346	-0.619	-0.160	2.687
1586.000	0.105	1586.000	3512092267.330	1020.713	398.614	1419.326	0.281	-0.346	1.920	-0.160	2.687
1587.000	1.823	1587.000	3512092268.830	1266.556	351.648	1618.204	0.217	-0.346	1.920	-0.160	2.687
1588.000	1.823	1588.000	3512092270.330	1479.498	204.536	1684.035	0.121	-0.346	1.920	-1.084	2.687
1589.000	3.242	1589.000	3512092271.830	2153.002	372.763	2525.766	0.148	-0.346	1.920	-1.084	2.687
1590.000	3.242	1590.000	3512092273.330	2225.241	346.222	2571.463	0.135	-0.346	1.920	-1.084	0.064
1591.000	3.416	1591.000	3512092274.830	2121.878	770.193	2892.070	0.266	-0.346	1.920	-1.084	0.064
1592.000	3.416	1592.000	3512092276.329	2270.573	458.307	2728.881	0.168	0.895	1.920	-1.084	0.064
1593.000	4.056	1593.000	3512092277.830	1226.374	139.317	1365.691	0.102	0.895	1.920	-1.084	0.064
1594.000	4.056	1594.000	3512092279.329	1232.945	227.427	1460.372	0.156	0.895	-0.853	-1.084	0.064
1595.000	2.952	1595.000	3512092280.830	1556.088	196.939	1753.027	0.112	0.895	-0.853	-1.084	0.064
1596.000	2.952	1596.000	3512092282.330	1607.681	122.741	1730.422	0.071	0.895	-0.853	-0.115	0.064
1597.000	3.484	1597.000	3512092283.831	2432.456	114.947	2547.403	0.045	0.895	-0.853	-0.115	0.064
1598.000	3.484	1598.000	3512092285.331	1756.865	570.984	2327.850	0.245	0.895	-0.853	-0.115	-0.875
1599.000	4.713	1599.000	3512092286.830	2128.360	527.670	2656.030	0.199	0.895	-0.853	-0.115	-0.875
1600.000	4.713	1600.000	3512092288.330	1797.447	954.305	2751.752	0.347	0.478	-0.853	-0.115	-0.875
1601.000	4.881	1601.000	3512092289.830	1165.057	281.990	1447.047	0.195	0.478	-0.853	-0.115	-0.875
1610.000	1.629	1610.000	3512092303.331	1097.880	300.934	1398.813	0.215	-0.273	-0.117	1.781	1.318
1611.000	1.247	1611.000	3512092304.830	1500.810	193.387	1694.197	0.114	-0.273	-0.117	1.781	1.318
1612.000	1.247	1612.000	3512092306.331	1345.632	334.086	1679.718	0.199	-0.273	-0.117	0.941	1.318
1613.000	0.591	1613.000	3512092307.830	2056.788	570.195	2626.983	0.217	-0.273	-0.117	0.941	1.318
1614.000	0.591	1614.000	3512092309.330	2202.597	268.472	2471.069	0.109	-0.273	-0.117	0.941	0.953
1615.000	-0.045	1615.000	3512092310.830	2244.511	577.990	2822.501	0.205	-0.273	-0.117	0.941	0.953
1616.000	-0.045	1616.000	3512092312.329	1888.733	610.353	2499.086	0.244	1.442	-0.117	0.941	0.953
1617.000	1.100	1617.000	3512092313.829	1039.849	351.056	1390.905	0.252	1.442	-0.117	0.941	0.953
1618.000	1.100	1618.000	3512092315.330	1187.302	204.536	1391.838	0.147	1.442	0.754	0.941	0.953
1619.000	1.668	1619.000	3512092316.831	1152.092	279.622	1431.714	0.195	1.442	0.754	0.941	0.953
1620.000	1.668	1620.000	3512092318.331	1393.051	372.566	1765.617	0.211	1.442	0.754	-0.964	0.953
1621.000	2.966	1621.000	3512092319.831	2242.158	321.950	2564.107	0.126	1.442	0.754	-0.964	0.953
1622.000	2.966	1622.000	3512092321.331	1751.182	724.510	2475.692	0.293	1.442	0.754	-0.964	0.351
1623.000	2.905	1623.000	3512092322.831	2045.865	684.353	2730.218	0.251	1.442	0.754	-0.964	0.351
1624.000	2.905	1624.000	3512092324.330	2023.532	654.654	2678.186	0.244	-0.938	0.754	-0.964	0.351
1625.000	1.642	1625.000	3512092325.830	1340.659	234.038	1574.697	0.149	-0.938	0.754	-0.964	0.351
1626.000	1.642	1626.000	3512092327.330	1161.505	268.571	1430.076	0.188	-0.938	0.140	-0.964	0.351
1627.000	1.532	1627.000	3512092328.830	1493.129	163.688	1656.817	0.099	-0.938	0.140	-0.964	0.351
1628.000	1.532	1628.000	3512092330.330	1434.032	211.048	1645.081	0.128	-0.938	0.140	1.486	0.351
1629.000	0.287	1629.000	3512092331.830	1952.669	437.192	2389.862	0.183	-0.938	0.140	1.486	0.351
1630.000	0.287	1630.000	3512092333.331	2273.993	311.195	2585.187	0.120	-0.938	0.140	1.486	-0.055
1631.000	0.606	1631.000	3512092334.831	2288.156	404.632	2692.789	0.150	-0.938	0.140	1.486	-0.055
1632.000	0.606	1632.000	3512092336.331	2143.634	555.987	2699.621	0.206	0.349	0.140	1.486	-0.055
1633.000	0.610	1633.000	3512092337.830	1198.668	154.512	1353.180	0.114	0.349	0.140	1.486	-0.055
1634.000	0.610	1634.000	3512092339.331	1168.698	275.675	1444.373	0.191	0.349	0.262	1.486	-0.055
1635.000	0.595	1635.000	3512092340.831	1472.172	207.990	1680.162	0.124	0.349	0.262	1.486	-0.055
1636.000	0.595	1636.000	3512092342.331	1516.661	266.894	1783.555	0.150	0.349	0.262	-0.557	-0.055
1637.000	1.441	1637.000	3512092343.831	2194.650	351.254	2545.904	0.138	0.349	0.262	-0.557	-0.055
1638.000	1.441	1638.000	3512092345.331	1961.194	433.542	2394.736	0.181	0.349	0.262	-0.557	0.495
1639.000	1.222	1639.000	3512092346.831	1913.953	585.193	2499.145	0.234	0.349	0.262	-0.557	0.495
1640.000	1.222	1640.000	3512092348.330	2164.236	485.243	2649.479	0.183	0.682	0.262	-0.557	0.495
1641.000	1.628	1641.000	3512092349.830	1114.485	185.592	1300.078	0.143	0.682	0.262	-0.557	0.495
1642.000	1.628	1642.000	3512092351.331	1206.127	76.664	1282.791	0.060	0.682	0.230	-0.557	0.495
1643.000	1.578	1643.000	3512092352.831	1113.864	479.718	1593.582	0.301	0.682	0.230	-0.557	0.495
1644.000	1.578	1644.000	3512092354.331	1647.597	223.776	1871.373	0.120	0.682	0.230	0.383	0.495
1645.000	1.420	1645.000	3512092355.831	1741.814	667.974	2409.788	0.277	0.682	0.230	0.383	0.495
1646.000	1.420	1646.000	3512092357.331	2037.341	440.843	2478.184	0.178	0.682	0.230	0.383	-0.454
1647.000	2.094	1647.000	3512092358.832	2466.866	373.651	2840.517	0.132	0.682	0.230	0.383	-0.454
1648.000	2.094	1648.000	3512092360.330	2447.463	463.142	2910.605	0.159	-0.738	0.230	0.383	-0.454
1649.000	1.107	1649.000	3512092361.830	1325.208	400.883	1726.091	0.232	-0.738	0.230	0.383	-0.454
1650.000	1.107	1650.000	3512092363.331	1120.524	265.907	1386.431	0.192	-0.738	-1.614	0.383	-0.454
1651.000	-0.829	1651.000	3512092364.831	1567.854	179.870	1747.724	0.103	-0.738	-1.614	0.383	-0.454
1652.000	-0.829	1652.000	3512092366.331	1425.597	320.667	1746.264	0.184	-0.738	-1.614	-0.883	-0.454
1653.000	0.312	1653.000	3512092367.831	1943.479	659.686	2603.165	0.253	-0.738	-1.614	-0.883	-0.454
1654.000	0.312	1654.000	3512092369.342	2017.227	406.606	2423.833	0.168	-0.738	-1.614	-0.883	0.245
1655.000	0.261	1655.000	3512092370.831	1938.284	728.555	2666.839	0.273	-0.738	-1.614	-0.883	0.245
1656.000	0.261	1656.000	3512092372.331	2576.224	236.208	2812.432	0.084	-0.360	-1.614	-0.883	0.245
1657.000	-0.333	1657.000	3512092373.831	1157.598	451.795	1609.393	0.281	-0.360	-1.614	-0.883	0.245
1658.000	-0.333	1658.000	3512092375.330	1313.797	108.829	1422.627	0.076	-0.360	0.718	-0.883	0.245
1659.000	0.066	1659.000	3512092376.830	1245.022	342.176	1587.198	0.216	-0.360	0.718	-0.883	0.245
1660.000	0.066	1660.000	3512092378.330	1490.554	257.323	1747.877	0.147	-0.360	0.718	-0.762	0.245
1661.000	1.142	1661.000	3512092379.830	2017.183	605.518	2622.701	0.231	-0.360	0.718	-0.762	0.245
1662.000	1.142	1662.000	3512092381.332	2083.206	373.750	2456.955	0.152	-0.360	0.718	-0.762	-1.683
1663.000	3.150	1663.000	3512092382.831	1945.699	744.243	2689.942	0.277	-0.360	0.718	-0.762	-1.683
1664.000	3.150	1664.000	3512092384.330	2575.203	371.579	2946.782	0.126	-1.817	0.718	-0.762	-1.683
1665.000	0.987	1665.000	3512092385.831	1281.163	303.992	1585.156	0.192	-1.817	0.718	-0.762	-1.683
1666.000	0.987	1666.000	3512092387.331	1223.532	312.774	1536.306	0.204	-1.817	-0.608	-0.762	-1.683
1667.000	0.140	1667.000	3512092388.832	1227.750	342.966	1570.716	0.218	-1.817	-0.608	-0.762	-1.683
1668.000	0.140	1668.000	3512092390.331	1634.810	237.886	1872.695	0.127	-1.817	-0.608	-0.701	-1.683
1669.000	1.196	1669.000	3512092391.832	2246.021	129.944	2375.965	0.055	-1.817	-0.608	-0.701	-1.683
1670.000	1.196	1670.000	3512092393.331	1922.788	519.678	2442.466	0.213	-1.817	-0.608	-0.701	-1.340
1671.000	2.945	1671.000	3512092394.831	2357.953	334.382	2692.335	0.124	-1.817	-0.608	-0.701	-1.340
1672.000	2.945	1672.000	3512092396.331	2197.447	452.288	2649.735	0.171	0.105	-0.608	-0.701	-1.340
1673.000	2.796	1673.000	3512092397.830	1158.531	185.099	1343.629	0.138	0.105	-0.608	-0.701	-1.340
1674.000	2.796	1674.000	3512092399.330	1179.665	242.326	1421.990	0.170	0.105	-0.812	-0.701	-1.340
1675.000	1.687	1675.000	3512092400.831	1521.279	160.827	1682.105	0.096	0.105	-0.812	-0.701	-1.340
1676.000	1.687	1676.000	3512092402.330	1316.639	378.979	1695.618	0.224	0.105	-0.812	1.406	-1.340
1677.000	0.527	1677.000	3512092403.833	2048.130	536.649	2584.778	0.208	0.105	-0.812	1.406	-1.340
1678.000	0.527	1678.000	3512092405.333	1900.100	550.067	2450.167	0.225	0.105	-0.812	1.406	0.414
1679.000	0.489	1679.000	3512092406.832	2625.818	187.072	2812.891	0.067	0.105	-0.812	1.406	0.414
1680.000	0.489	1680.000	3512092408.331	2000.355	600.387	2600.742	0.231	0.290	-0.812	1.406	0.414
1681.000	0.458	1681.000	3512092409.831	1259.274	225.552	1484.826	0.152	0.290	-0.812	1.406	0.414
1682.000	0.458	1682.000	3512092411.331	996.870	437.390	1434.260	0.305	0.290	1.138	1.406	0.414
1683.000	1.375	1683.000	3512092412.831	1389.721	210.654	1600.375	0.132	0.290	1.138	1.406	0.414
1684.000	1.375	1684.000	3512092414.332	1726.451	63.048	1789.499	0.035	0.290	1.138	0.150	0.414
1685.000	1.488	1685.000	3512092415.832	1645.110	730.233	2375.343	0.307	0.290	1.138	0.150	0.414
1686.000	1.488	1686.000	3512092417.331	1887.934	604.729	2492.663	0.243	0.290	1.138	0.150	1.462
1687.000	0.343	1687.000	3512092418.832	2227.683	545.627	2773.310	0.197	0.290	1.138	0.150	1.462
1688.000	0.343	1688.000	3512092420.331	2090.265	539.510	2629.775	0.205	1.362	1.138	0.150	1.462
1689.000	1.375	1689.000	3512092421.831	1041.003	358.851	1399.854	0.256	1.362	1.138	0.150	1.462
1698.000	1.482	1698.000	3512092435.331	1193.828	214.206	1408.034	0.152	-0.452	0.080	-0.577	0.075
1699.000	1.358	1699.000	3512092436.832	1180.153	432.851	1613.004	0.268	-0.452	0.080	-0.577	0.075
1700.000	1.358	1700.000	3512092438.332	1743.234	90.379	1833.613	0.049	-0.452	0.080	1.697	0.075
1701.000	-0.061	1701.000	3512092439.832	1682.051	653.075	2335.126	0.280	-0.452	0.080	1.697	0.075
1702.000	-0.061	1702.000	3512092441.332	2384.238	125.603	2509.841	0.050	-0.452	0.080	1.697	-0.444
1703.000	0.800	1703.000	3512092442.847	2262.626	618.838	2881.464	0.215	-0.452	0.080	1.697	-0.444
1704.000	0.800	1704.000	3512092444.332	2521.123	353.326	2874.449	0.123	-0.363	0.080	1.697	-0.444
1705.000	0.086	1705.000	3512092445.832	1192.629	273.011	1465.640	0.186	-0.363	0.080	1.697	-0.444
1706.000	0.086	1706.000	3512092447.332	1100.810	286.331	1387.141	0.206	-0.363	-1.949	1.697	-0.444
1707.000	-2.182	1707.000	3512092448.831	1499.656	276.859	1776.515	0.156	-0.363	-1.949	1.697	-0.444
1708.000	-2.182	1708.000	3512092450.332	1233.877	376.216	1610.094	0.234	-0.363	-1.949	-2.043	-0.444
1709.000	0.211	1709.000	3512092451.832	1862.892	776.310	2639.203	0.294	-0.363	-1.949	-2.043	-0.444
1710.000	0.211	1710.000	3512092453.333	2046.176	399.502	2445.677	0.163	-0.363	-1.949	-2.043	-0.817
1711.000	1.395	1711.000	3512092454.833	2304.806	469.358	2774.164	0.169	-0.363	-1.949	-2.043	-0.817
1712.000	1.395	1712.000	3512092456.333	2274.570	488.894	2763.464	0.177	0.179	-1.949	-2.043	-0.817
1713.000	1.283	1713.000	3512092457.833	1227.350	240.155	1467.505	0.164	0.179	-1.949	-2.043	-0.817
1714.000	1.283	1714.000	3512092459.333	1176.601	255.054	1431.655	0.178	0.179	0.692	-2.043	-0.817
1715.000	1.659	1715.000	3512092460.833	1381.507	436.008	1817.516	0.240	0.179	0.692	-2.043	-0.817
1716.000	1.659	1716.000	3512092462.333	1454.501	330.928	1785.430	0.185	0.179	0.692	-1.164	-0.817
1717.000	3.163	1717.000	3512092463.832	2098.079	264.032	2362.111	0.112	0.179	0.692	-1.164	-0.817
1718.000	3.163	1718.000	3512092465.332	1917.904	336.355	2254.259	0.149	0.179	0.692	-1.164	0.069
1719.000	3.482	1719.000	3512092466.832	2000.844	611.833	2612.676	0.234	0.179	0.692	-1.164	0.069
1720.000	3.482	1720.000	3512092468.332	2438.272	373.651	2811.923	0.133	0.129	0.692	-1.164	0.069
1721.000	3.327	1721.000	3512092469.832	974.936	447.059	1421.995	0.314	0.129	0.692	-1.164	0.069
1722.000	3.327	1722.000	3512092471.345	1342.302	126.787	1469.089	0.086	0.129	-0.485	-1.164	0.069
1723.000	2.468	1723.000	3512092472.833	1283.028	297.086	1580.114	0.188	0.129	-0.485	-1.164	0.069
1724.000	2.468	1724.000	3512092474.333	1500.188	144.547	1644.735	0.088	0.129	-0.485	0.333	0.069
1725.000	2.450	1725.000	3512092475.834	1934.110	532.702	2466.812	0.216	0.129	-0.485	0.333	0.069
1726.000	2.450	1726.000	3512092477.334	2188.789	370.000	2558.789	0.145	0.129	-0.485	0.333	-0.901
1727.000	3.720	1727.000	3512092478.833	1923.543	746.019	2669.562	0.279	0.129	-0.485	0.333	-0.901
1728.000	3.720	1728.000	3512092480.332	2291.797	459.590	2751.386	0.167	-2.029	-0.485	0.333	-0.901
1729.000	1.332	1729.000	3512092481.832	1084.294	290.574	1374.867	0.211	-2.029	-0.485	0.333	-0.901
1730.000	1.332	1730.000	3512092483.346	1152.980	403.744	1556.725	0.259	-2.029	-0.891	0.333	-0.901
1731.000	0.073	1731.000	3512092484.832	1506.360	262.651	1769.011	0.148	-2.029	-0.891	0.333	-0.901
1732.000	0.073	1732.000	3512092486.332	1379.332	157.669	1537.001	0.103	-2.029	-0.891	-0.635	-0.901
1733.000	1.085	1733.000	3512092487.832	1903.518	540.990	2444.508	0.221	-2.029	-0.891	-0.635	-0.901
1734.000	1.085	1734.000	3512092489.343	2207.348	377.302	2584.650	0.146	-2.029	-0.891	-0.635	-1.000
1735.000	2.388	1735.000	3512092490.835	2162.193	697.475	2859.669	0.244	-2.029	-0.891	-0.635	-1.000
1736.000	2.388	1736.000	3512092492.333	2280.875	552.336	2833.211	0.195	0.427	-0.891	-0.635	-1.000
1737.000	2.448	1737.000	3512092493.833	1175.180	260.678	1435.858	0.182	0.427	-0.891	-0.635	-1.000
1738.000	2.448	1738.000	3512092495.333	1191.697	222.296	1413.993	0.157	0.427	-0.408	-0.635	-1.000
1739.000	1.638	1739.000	3512092496.833	1320.191	411.835	1732.026	0.238	0.427	-0.408	-0.635	-1.000
1740.000	1.638	1740.000	3512092498.333	1333.999	269.558	1603.557	0.168	0.427	-0.408	-0.670	-1.000
1741.000	2.718	1741.000	3512092499.834	1871.062	368.224	2239.287	0.164	0.427	-0.408	-0.670	-1.000
1742.000	2.718	1742.000	3512092501.334	1830.880	662.350	2493.230	0.266	0.427	-0.408	-0.670	-0.435
1743.000	3.605	1743.000	3512092502.848	2498.346	485.934	2984.280	0.163	0.427	-0.408	-0.670	-0.435
1744.000	3.605	1744.000	3512092504.332	2043.867	753.419	2797.286	0.269	-0.216	-0.408	-0.670	-0.435
1745.000	3.028	1745.000	3512092505.832	1122.034	386.576	1508.610	0.256	-0.216	-0.408	-0.670	-0.435
1746.000	3.028	1746.000	3512092507.347	1122.788	184.408	1307.197	0.141	-0.216	-0.620	-0.670	-0.435
1747.000	1.973	1747.000	3512092508.834	1469.464	137.147	1606.611	0.085	-0.216	-0.620	-0.670	-0.435
1748.000	1.973	1748.000	3512092510.334	1460.051	257.224	1717.275	0.150	-0.216	-0.620	0.900	-0.435
1749.000	1.387	1749.000	3512092511.845	2041.691	515.040	2556.732	0.201	-0.216	-0.620	0.900	-0.435
1750.000	1.387	1750.000	3512092513.334	2264.269	285.147	2549.416	0.112	-0.216	-0.620	0.900	0.947
1751.000	0.854	1751.000	3512092514.835	2362.571	488.203	2850.774	0.171	-0.216	-0.620	0.900	0.947
1752.000	0.854	1752.000	3512092516.333	2112.998	489.387	2602.385	0.188	-1.025	-0.620	0.900	0.947
1753.000	-0.625	1753.000	3512092517.845	1137.396	239.267	1376.663	0.174	-1.025	-0.620	0.900	0.947
1754.000	-0.625	1754.000	3512092519.333	1168.298	205.720	1374.018	0.150	-1.025	0.573	0.900	0.947
1755.000	-0.435	1755.000	3512092520.833	1414.097	496.886	1910.983	0.260	-1.025	0.573	0.900	0.947
1756.000	-0.435	1756.000	3512092522.333	1429.504	227.230	1656.734	0.137	-1.025	0.573	-0.797	0.947
1757.000	0.710	1757.000	3512092523.833	2328.471	162.208	2490.680	0.065	-1.025	0.573	-0.797	0.947
1758.000	0.710	1758.000	3512092525.335	2173.204	367.928	2541.132	0.145	-1.025	0.573	-0.797	0.149
1759.000	0.933	1759.000	3512092526.834	2271.950	402.166	2674.116	0.150	-1.025	0.573	-0.797	0.149
1760.000	0.933	1760.000	3512092528.333	2332.823	489.880	2822.703	0.174	-0.214	0.573	-0.797	0.149
1761.000	0.220	1761.000	3512092529.834	1314.818	210.851	1525.669	0.138	-0.214	0.573	-0.797	0.149
1762.000	0.220	1762.000	3512092531.344	1068.087	380.064	1448.152	0.262	-0.214	-1.093	-0.797	0.149
1763.000	-1.412	1763.000	3512092532.845	1421.734	385.886	1807.620	0.213	-0.214	-1.093	-0.797	0.149
1764.000	-1.412	1764.000	3512092534.344	1326.451	540.201	1866.652	0.289	-0.214	-1.093	0.709	0.149
1765.000	-1.723	1765.000	3512092535.834	1435.986	908.326	2344.312	0.387	-0.214	-1.093	0.709	0.149
1766.000	-1.723	1766.000	3512092537.335	1979.265	522.441	2501.706	0.209	-0.214	-1.093	0.709	0.206
1767.000	-1.500	1767.000	3512092538.835	2261.072	566.150	2827.222	0.200	-0.214	-1.093	0.709	0.206
1768.000	-1.500	1768.000	3512092540.333	2334.066	508.923	2842.989	0.179	1.105	-1.093	0.709	0.206
1769.000	-0.834	1769.000	3512092541.847	1237.074	219.928	1457.002	0.151	1.105	-1.093	0.709	0.206
1770.000	-0.834	1770.000	3512092543.334	1189.788	268.275	1458.063	0.184	1.105	0.675	0.709	0.206
1771.000	-0.638	1771.000	3512092544.835	1466.622	234.926	1701.548	0.138	1.105	0.675	0.709	0.206
1772.000	-0.638	1772.000	3512092546.345	1244.977	371.283	1616.260	0.230	1.105	0.675	-1.589	0.206
1773.000	1.480	1773.000	3512092547.834	2270.307	284.654	2554.961	0.111	1.105	0.675	-1.589	0.206
1774.000	1.480	1774.000	3512092549.334	1930.114	522.835	2452.949	0.213	1.105	0.675	-1.589	-0.189
1775.000	2.156	1775.000	3512092550.834	2648.063	155.104	2803.167	0.055	1.105	0.675	-1.589	-0.189
1776.000	2.156	1776.000	3512092552.333	2037.784	519.283	2557.067	0.203	0.294	0.675	-1.589	-0.189
1777.000	1.948	1777.000	3512092553.833	1161.372	191.413	1352.786	0.141	0.294	0.675	-1.589	-0.189
1778.000	1.948	1778.000	3512092555.333	1144.278	324.811	1469.089	0.221	0.294	0.815	-1.589	-0.189
1779.000	2.320	1779.000	3512092556.833	1434.921	286.035	1720.956	0.166	0.294	0.815	-1.589	-0.189
1780.000	2.320	1780.000	3512092558.335	1491.131	331.027	1822.158	0.182	0.294	0.815	0.905	-0.189
1781.000	1.862	1781.000	3512092559.845	2242.735	248.640	2491.375	0.100	0.294	0.815	0.905	-0.189
1782.000	1.862	1782.000	3512092561.336	1872.083	525.795	2397.879	0.219	0.294	0.815	0.905	1.314
1783.000	0.995	1783.000	3512092562.846	2529.337	488.006	3017.343	0.162	0.294	0.815	0.905	1.314
1784.000	0.995	1784.000	3512092564.334	2322.478	496.886	2819.364	0.176	0.708	0.815	0.905	1.314
1785.000	1.274	1785.000	3512092565.845	1059.474	311.886	1371.359	0.227	0.708	0.815	0.905	1.314
1786.000	1.274	1786.000	3512092567.334	1385.281	162.208	1547.489	0.105	0.708	0.138	0.905	1.314
1787.000	0.928	1787.000	3512092568.834	1333.777	348.096	1681.874	0.207	0.708	0.138	0.905	1.314
1788.000	0.928	1788.000	3512092570.334	1428.749	378.880	1807.629	0.210	0.708	0.138	1.063	1.314
1789.000	0.339	1789.000	3512092571.834	1953.957	424.464	2378.421	0.178	0.708	0.138	1.063	1.314
1790.000	0.339	1790.000	3512092573.343	2078.588	585.587	2664.175	0.220	0.708	0.138	1.063	0.129
1791.000	0.657	1791.000	3512092574.834	2257.299	532.801	2790.099	0.191	0.708	0.138	1.063	0.129
1792.000	0.657	1792.000	3512092576.334	2185.592	482.185	2667.777	0.181	-1.091	0.138	1.063	0.129
1793.000	-0.941	1793.000	3512092577.834	1380.175	157.669	1537.845	0.103	-1.091	0.138	1.063	0.129
1794.000	-0.941	1794.000	3512092579.335	1036.075	465.904	1501.979	0.310	-1.091	0.023	1.063	0.129
1795.000	-1.422	1795.000	3512092580.834	1563.947	129.253	1693.201	0.076	-1.091	0.023	1.063	0.129
1796.000	-1.422	1796.000	3512092582.335	1428.394	469.358	1897.751	0.247	-1.091	0.023	0.368	0.129
1797.000	-1.350	1797.000	3512092583.835	2064.868	402.856	2467.725	0.163	-1.091	0.023	0.368	0.129
1798.000	-1.350	1798.000	3512092585.349	1748.474	703.593	2452.066	0.287	-1.091	0.023	0.368	-0.091
1799.000	-0.774	1799.000	3512092586.836	2312.176	431.667	2743.843	0.157	-1.091	0.023	0.368	-0.091
1800.000	-0.774	1800.000	3512092588.334	2033.478	700.337	2733.814	0.256	1.847	0.023	0.368	-0.091
1801.000	0.617	1801.000	3512092589.834	1073.993	322.542	1396.534	0.231	1.847	0.023	0.368	-0.091
1802.000	0.617	1802.000	3512092591.334	1145.432	132.213	1277.646	0.103	1.847	1.521	0.368	-0.091
1803.000	1.684	1803.000	3512092592.834	1370.896	273.307	1644.203	0.166	1.847	1.521	0.368	-0.091
1804.000	1.684	1804.000	3512092594.335	1388.212	367.238	1755.449	0.209	1.847	1.521	1.100	-0.091
1805.000	0.994	1805.000	3512092595.835	1774.270	721.846	2496.116	0.289	1.847	1.521	1.100	-0.091
1806.000	0.994	1806.000	3512092597.336	2240.826	175.331	2416.156	0.073	1.847	1.521	1.100	0.879
1807.000	0.544	1807.000	3512092598.846	2234.698	523.624	2758.323	0.190	1.847	1.521	1.100	0.879
1808.000	0.544	1808.000	3512092600.349	2374.825	394.568	2769.394	0.142	-1.134	1.521	1.100	0.879
1809.000	-1.075	1809.000	3512092601.834	1220.868	269.854	1490.722	0.181	-1.134	1.521	1.100	0.879
1810.000	-1.075	1810.000	3512092603.334	1069.153	414.302	1483.455	0.279	-1.134	0.382	1.100	0.879
1811.000	-1.148	1811.000	3512092604.835	1418.582	439.166	1857.747	0.236	-1.134	0.382	1.100	0.879
1812.000	-1.148	1812.000	3512092606.336	1356.599	370.395	1726.994	0.214	-1.134	0.382	-1.927	0.879
1813.000	1.251	1813.000	3512092607.835	2155.622	313.464	2469.086	0.127	-1.134	0.382	-1.927	0.879
1814.000	1.251	1814.000	3512092609.335	1522.566	604.038	2126.604	0.284	-1.134	0.382	-1.927	-0.421
1815.000	2.145	1815.000	3512092610.836	2417.716	275.774	2693.489	0.102	-1.134	0.382	-1.927	-0.421
1816.000	2.145	1816.000	3512092612.335	1758.552	841.726	2600.279	0.324	0.874	0.382	-1.927	-0.421
1817.000	2.584	1817.000	3512092613.835	1336.130	277.648	1613.779	0.172	0.874	0.382	-1.927	-0.421
1818.000	2.584	1818.000	3512092615.335	972.317	281.398	1253.714	0.224	0.874	-0.195	-1.927	-0.421
1819.000	1.995	1819.000	3512092616.835	1530.958	304.683	1835.641	0.166	0.874	-0.195	-1.927	-0.421
1820.000	1.995	1820.000	3512092618.335	1335.820	317.806	1653.625	0.192	0.874	-0.195	1.397	-0.421
1821.000	0.973	1821.000	3512092619.836	2234.432	413.611	2648.043	0.156	0.874	-0.195	1.397	-0.421
1822.000	0.973	1822.000	3512092621.344	1864.979	619.331	2484.310	0.249	0.874	-0.195	1.397	1.969
1823.000	-0.692	1823.000	3512092622.837	2057.187	585.982	2643.169	0.222	0.874	-0.195	1.397	1.969
1824.000	-0.692	1824.000	3512092624.335	2151.093	534.281	2685.374	0.199	0.466	-0.195	1.397	1.969
1825.000	-0.557	1825.000	3512092625.834	1164.657	297.283	1461.940	0.203	0.466	-0.195	1.397	1.969
1826.000	-0.557	1826.000	3512092627.335	1129.404	225.158	1354.561	0.166	0.466	0.233	1.397	1.969
1827.000	-0.745	1827.000	3512092628.844	1467.777	216.574	1684.350	0.129	0.466	0.233	1.397	1.969
1828.000	-0.745	1828.000	3512092630.350	1339.727	406.112	1745.839	0.233	0.466	0.233	0.828	1.969
1829.000	-1.271	1829.000	3512092631.836	2067.621	519.974	2587.595	0.201	0.466	0.233	0.828	1.969
1830.000	-1.271	1830.000	3512092633.337	2003.108	257.224	2260.332	0.114	0.466	0.233	0.828	-0.202
1831.000	-0.823	1831.000	3512092634.837	2242.646	490.966	2733.612	0.180	0.466	0.233	0.828	-0.202
1832.000	-0.823	1832.000	3512092636.335	2493.773	281.102	2774.875	0.101	-0.330	0.233	0.828	-0.202
1833.000	-1.506	1833.000	3512092637.836	1209.546	218.251	1427.797	0.153	-0.330	0.233	0.828	-0.202
1834.000	-1.506	1834.000	3512092639.335	1088.645	305.867	1394.512	0.219	-0.330	0.926	0.828	-0.202
1835.000	-0.930	1835.000	3512092640.835	1597.780	298.566	1896.346	0.157	-0.330	0.926	0.828	-0.202
1836.000	-0.930	1836.000	3512092642.335	1507.692	280.608	1788.300	0.157	-0.330	0.926	-0.775	-0.202
1837.000	0.254	1837.000	3512092643.844	2184.793	348.294	2533.086	0.137	-0.330	0.926	-0.775	-0.202
1838.000	0.254	1838.000	3512092645.336	1938.106	524.414	2462.520	0.213	-0.330	0.926	-0.775	-0.697
1839.000	1.244	1839.000	3512092646.837	2436.097	494.025	2930.122	0.169	-0.330	0.926	-0.775	-0.697
1840.000	1.244	1840.000	3512092648.349	2468.553	441.830	2910.383	0.152	0.591	0.926	-0.775	-0.697
1841.000	1.493	1841.000	3512092649.836	1303.230	175.528	1478.758	0.119	0.591	0.926	-0.775	-0.697
1842.000	1.493	1842.000	3512092651.336	1115.684	319.483	1435.167	0.223	0.591	-0.005	-0.775	-0.697
1843.000	1.174	1843.000	3512092652.836	1333.289	456.728	1790.017	0.255	0.591	-0.005	-0.775	-0.697
1844.000	1.174	1844.000	3512092654.336	1368.853	365.758	1734.611	0.211	0.591	-0.005	0.671	-0.697
1845.000	0.893	1845.000	3512092655.837	2036.852	487.808	2524.660	0.193	0.591	-0.005	0.671	-0.697
1846.000	0.893	1846.000	3512092657.349	1769.164	562.795	2331.959	0.241	0.591	-0.005	0.671	-0.149
1847.000	1.412	1847.000	3512092658.836	1982.640	605.715	2588.355	0.234	0.591	-0.005	0.671	-0.149
1848.000	1.412	1848.000	3512092660.336	2277.189	496.688	2773.878	0.179	0.924	-0.005	0.671	-0.149
1849.000	1.971	1849.000	3512092661.835	1149.828	198.912	1348.740	0.147	0.924	-0.005	0.671	-0.149
1850.000	1.971	1850.000	3512092663.336	1144.278	131.720	1275.998	0.103	0.924	-0.394	0.671	-0.149
1851.000	1.185	1851.000	3512092664.836	1416.495	339.808	1756.303	0.193	0.924	-0.394	0.671	-0.149
1852.000	1.185	1852.000	3512092666.347	1341.725	203.155	1544.880	0.132	0.924	-0.394	0.428	-0.149
1853.000	1.103	1853.000	3512092667.838	1743.012	723.918	2466.930	0.293	0.924	-0.394	0.428	-0.149
1854.000	1.103	1854.000	3512092669.338	2259.607	383.912	2643.519	0.145	0.924	-0.394	0.428	-0.489
1855.000	1.993	1855.000	3512092670.837	2181.374	598.414	2779.788	0.215	0.924	-0.394	0.428	-0.489
1856.000	1.993	1856.000	3512092672.337	2255.877	650.313	2906.190	0.224	-0.394	-0.394	0.428	-0.489
1857.000	1.235	1857.000	3512092673.836	1135.043	391.510	1526.552	0.256	-0.394	-0.394	0.428	-0.489
1858.000	1.235	1858.000	3512092675.336	1128.116	307.939	1436.055	0.214	-0.394	-0.551	0.428	-0.489
1859.000	0.252	1859.000	3512092676.847	1389.455	340.499	1729.954	0.197	-0.394	-0.551	0.428	-0.489
1860.000	0.252	1860.000	3512092678.336	1337.285	412.230	1749.514	0.236	-0.394	-0.551	-1.319	-0.489
1861.000	2.067	1861.000	3512092679.836	2364.214	221.704	2585.918	0.086	-0.394	-0.551	-1.319	-0.489
1862.000	2.067	1862.000	3512092681.337	1614.918	913.852	2528.770	0.361	-0.394	-0.551	-1.319	0.076
1863.000	2.369	1863.000	3512092682.837	2112.021	727.569	2839.590	0.256	-0.394	-0.551	-1.319	0.076
1864.000	2.369	1864.000	3512092684.347	2178.710	760.227	2938.938	0.259	-0.374	-0.551	-1.319	0.076
1865.000	1.633	1865.000	3512092685.837	1197.736	121.459	1319.194	0.092	-0.374	-0.551	-1.319	0.076
1866.000	1.633	1866.000	3512092687.337	1127.051	510.600	1637.651	0.312	-0.374	0.345	-1.319	0.076
1867.000	1.650	1867.000	3512092688.837	1485.803	209.075	1694.878	0.123	-0.374	0.345	-1.319	0.076
1868.000	1.650	1868.000	3512092690.337	1279.343	303.795	1583.138	0.192	-0.374	0.345	2.452	0.076
1869.000	-0.519	1869.000	3512092691.837	1872.439	577.891	2450.330	0.236	-0.374	0.345	2.452	0.076
1870.000	-0.519	1870.000	3512092693.338	1966.789	466.003	2432.792	0.192	-0.374	0.345	2.452	0.022
1871.000	-0.208	1871.000	3512092694.838	2297.302	598.710	2896.012	0.207	-0.374	0.345	2.452	0.022
1872.000	-0.208	1872.000	3512092696.336	1448.995	960.916	2409.911	0.399	1.955	0.345	2.452	0.022
1873.000	1.473	1873.000	3512092697.836	1201.865	245.384	1447.249	0.170	1.955	0.345	2.452	0.022
1874.000	1.473	1874.000	3512092699.336	1265.224	222.691	1487.914	0.150	1.955	0.610	2.452	0.022
1875.000	1.749	1875.000	3512092700.846	1301.454	294.126	1595.580	0.184	1.955	0.610	2.452	0.022
1876.000	1.749	1876.000	3512092702.337	1307.004	331.422	1638.426	0.202	1.955	0.610	-0.394	0.022
1877.000	2.385	1877.000	3512092703.837	2110.601	471.134	2581.734	0.182	1.955	0.610	-0.394	0.022
1878.000	2.385	1878.000	3512092705.338	2074.281	326.686	2400.967	0.136	1.955	0.610	-0.394	1.708
1879.000	0.926	1879.000	3512092706.837	2073.748	680.998	2754.746	0.247	1.955	0.610	-0.394	1.708
1880.000	0.926	1880.000	3512092708.348	2601.043	257.422	2858.465	0.090	-0.177	0.610	-0.394	1.708
1881.000	0.461	1881.000	3512092709.837	1008.813	486.822	1495.635	0.325	-0.177	0.610	-0.394	1.708
1882.000	0.461	1882.000	3512092711.336	1317.882	274.590	1592.472	0.172	-0.177	0.160	-0.394	1.708
1883.000	0.319	1883.000	3512092712.836	1350.738	268.176	1618.914	0.166	-0.177	0.160	-0.394	1.708
1884.000	0.319	1884.000	3512092714.337	1657.409	148.789	1806.199	0.082	-0.177	0.160	-0.413	1.708
1885.000	1.006	1885.000	3512092715.837	2132.667	334.382	2467.049	0.136	-0.177	0.160	-0.413	1.708
1886.000	1.006	1886.000	3512092717.339	2419.136	162.406	2581.542	0.063	-0.177	0.160	-0.413	-1.398
1887.000	2.671	1887.000	3512092718.839	1893.662	840.739	2734.401	0.307	-0.177	0.160	-0.413	-1.398
1888.000	2.671	1888.000	3512092720.337	2222.089	532.110	2754.199	0.193	-1.362	0.160	-0.413	-1.398
1889.000	1.055	1889.000	3512092721.837	1320.369	223.579	1543.948	0.145	-1.362	0.160	-0.413	-1.398
1890.000	1.055	1890.000	3512092723.338	1154.046	154.512	1308.558	0.118	-1.362	-0.741	-0.413	-1.398
1891.000	0.023	1891.000	3512092724.838	1254.434	383.123	1637.557	0.234	-1.362	-0.741	-0.413	-1.398
1900.000	-0.376	1900.000	3512092738.339	1269.975	446.072	1716.047	0.260	-0.238	-1.110	-0.206	-1.017
1901.000	0.080	1901.000	3512092739.839	2002.176	749.374	2751.550	0.272	-0.238	-1.110	-0.206	-1.017
1902.000	0.080	1902.000	3512092741.338	2131.202	365.264	2496.467	0.146	-0.238	-1.110	-0.206	0.607
1903.000	-0.318	1903.000	3512092742.838	2243.401	434.528	2677.929	0.162	-0.238	-1.110	-0.206	0.607
1904.000	-0.318	1904.000	3512092744.337	2110.734	697.969	2808.702	0.249	-0.890	-1.110	-0.206	0.607
1905.000	-1.520	1905.000	3512092745.837	1214.830	224.664	1439.494	0.156	-0.890	-1.110	-0.206	0.607
1906.000	-1.520	1906.000	3512092747.349	1432.834	29.403	1462.236	0.020	-0.890	1.152	-0.206	0.607
1907.000	-0.598	1907.000	3512092748.837	1464.402	379.670	1844.072	0.206	-0.890	1.152	-0.206	0.607
1908.000	-0.598	1908.000	3512092750.337	1454.457	154.808	1609.265	0.096	-0.890	1.152	-1.121	0.607
1909.000	0.790	1909.000	3512092751.838	1881.275	576.707	2457.982	0.235	-0.890	1.152	-1.121	0.607
1910.000	0.790	1910.000	3512092753.339	1982.107	433.048	2415.155	0.179	-0.890	1.152	-1.121	0.767
1911.000	0.229	1911.000	3512092754.840	2121.434	576.806	2698.240	0.214	-0.890	1.152	-1.121	0.767
1920.000	0.543	1920.000	3512092768.337	2310.978	567.038	2878.016	0.197	-0.661	-0.976	-0.492	-0.833
1921.000	-0.410	1921.000	3512092769.851	1496.992	-3.453	1493.539	-0.002	-0.661	-0.976	-0.492	-0.833
1922.000	-0.410	1922.000	3512092771.349	1054.412	386.280	1440.693	0.268	-0.661	0.932	-0.492	-0.833
1923.000	0.330	1923.000	3512092772.839	1658.386	203.352	1861.738	0.109	-0.661	0.932	-0.492	-0.833
1924.000	0.330	1924.000	3512092774.339	1246.398	482.678	1729.076	0.279	-0.661	0.932	1.712	-0.833
1925.000	-1.178	1925.000	3512092775.839	1745.188	697.574	2442.762	0.286	-0.661	0.932	1.712	-0.833
1926.000	-1.178	1926.000	3512092777.340	2483.250	201.478	2684.728	0.075	-0.661	0.932	1.712	0.321
1927.000	-1.266	1927.000	3512092778.840	2270.618	526.288	2796.907	0.188	-0.661	0.932	1.712	0.321
1928.000	-1.266	1928.000	3512092780.337	2250.549	605.518	2856.067	0.212	2.406	0.932	1.712	0.321
1929.000	0.987	1929.000	3512092781.849	953.713	382.136	1335.849	0.286	2.406	0.932	1.712	0.321
1930.000	0.987	1930.000	3512092783.339	1225.308	112.776	1338.084	0.084	2.406	1.512	1.712	0.321
1931.000	2.367	1931.000	3512092784.839	1236.852	364.574	1601.426	0.228	2.406	1.512	1.712	0.321
1932.000	2.367	1932.000	3512092786.349	1584.016	89.392	1673.408	0.053	2.406	1.512	-1.873	0.321
1933.000	4.565	1933.000	3512092787.840	1993.295	502.510	2495.805	0.201	2.406	1.512	-1.873	0.321
1934.000	4.565	1934.000	3512092789.339	1992.363	343.854	2336.217	0.147	2.406	1.512	-1.873	0.212
1935.000	4.556	1935.000	3512092790.840	2015.229	653.569	2668.798	0.245	2.406	1.512	-1.873	0.212
1936.000	4.556	1936.000	3512092792.338	2315.063	504.286	2819.349	0.179	-1.795	1.512	-1.873	0.212
1937.000	2.481	1937.000	3512092793.838	1069.153	310.998	1380.151	0.225	-1.795	1.512	-1.873	0.212
1938.000	2.481	1938.000	3512092795.339	1243.734	246.568	1490.302	0.165	-1.795	-1.550	-1.873	0.212
1939.000	0.698	1939.000	3512092796.838	1333.644	325.403	1659.047	0.196	-1.795	-1.550	-1.873	0.212
1940.000	0.698	1940.000	3512092798.349	1378.177	236.800	1614.977	0.147	-1.795	-1.550	-0.482	0.212
1941.000	1.447	1941.000	3512092799.850	2186.791	328.659	2515.450	0.131	-1.795	-1.550	-0.482	0.212
1942.000	1.447	1942.000	3512092801.340	1603.241	763.582	2366.823	0.323	-1.795	-1.550	-0.482	-0.587
1943.000	2.318	1943.000	3512092802.848	2557.087	214.206	2771.293	0.077	-1.795	-1.550	-0.482	-0.587
